Compound Id	AutocorrelationPolarizability [ATSp5]
26325084	2850.084
26325083	2541.727
18019	1352.837
8521	1113.364
26325082	2233.370
10449	1799.101
61149	130.362
2056044	136.082
26325081	1925.008
26824	882.043
8520	806.104
10451	1458.754
2041618	N/A
6191	0.0
26325080	1616.620
76894	N/A
16425	0.0
6153	0.0
10784857	N/A
38403	67.459
14021447	1308.105
9256	0.0
23101	501.853
10675065	74.754
10652594	N/A
10696	946.746
62827	15.661
11434292	N/A
21106179	0.0
122090	647.833
11557190	998.982
9095782	0.0
12577	0.0
9286	0.0
61346	111.859
6190	0.0
6270	498.159
9484	0.0
6105	0.0
16841	0.0
4927801	3762.037
109705	739.019
9088156	863.183
56144	118.606
23150	208.934
108106	2597.428
78828	687.038
6128	0.0
10452	395.019
10606755	49.827
3631	99.244
69569	564.431
15413	313.872
66656	N/A
9411	83.176
454209	0.0
10733068	2620.631
17619	N/A
13837650	0.0
13853215	0.0
9392	0.0
66567	91.614
18971812	0.0
66655	279.221
68328	362.712
13299573	139.156
56117	170.342
12161	96.177
107412	29.535
67414	1356.887
13803	49.044
14441700	0.0
10756390	1769.656
68224	1706.942
61213	0.0
9254	0.0
9016	0.0
73583	0.0
14998	66.177
2018165	0.0
6148	0.0
69914	814.455
11671339	836.294
29040	0.0
67991	241.274
454215	0.0
62826	38.304
7626	115.015
59573	16.669
6156	0.0
10106	444.250
10801109	821.691
512621	N/A
12933	644.932
11996	85.594
13835836	138.242
9633	182.840
15789876	860.814
18688	171.519
12586	655.276
71433	0.0
68503	115.376
937	0.0
692	0.0
23208	0.0
291	0.0
274	0.0
6084	0.0
6132	0.0
7956	0.0
6094	0.0
11749	46.888
7555	0.0
6120	0.0
7712	24.699
6308	0.0
9646	0.0
10781	109.872
15802	254.573
17976	253.227
7767	62.876
7604	57.408
7010	27.923
6163	0.0
6340	0.0
7671	311.991
9377	83.158
8560	109.528
11094	110.866
11023	101.552
11055	98.719
10786	64.349
7619	132.515
10755	31.344
11551	88.826
349	161.247
11035	164.195
11104	175.942
10795	147.386
10445	226.507
8569	184.787
11841	204.969
7073	240.476
123860	207.175
7849	215.908
17558	224.047
13439	385.143
13402	209.777
6287	257.353
10227261	602.218
14840	272.238
13448	351.205
12220	285.322
13619	329.505
7890	387.288
11882	445.355
11883	503.576
10540	620.230
7929	853.778
11897	912.176
11899	970.575
12017	1028.975
12072	1087.374
11900	1145.774
11901	1204.174
11146	1262.575
11902	1320.975
10542	1554.575
11906	1788.176
7823	94.324
13835376	116.638
55130	214.753
6188	0.0
127750	117.809
14299946	854.572
30713	0.0
14694	0.0
99596	0.0
11849	92.402
7757	469.501
21106169	0.0
20545	816.847
10441	0.0
14672	0.0
7511	354.028
10446	157.377
7657	212.281
22453	188.097
6151	0.0
7509	297.071
7872	327.717
10433	176.451
55084	294.309
7875	442.421
2062437	0.0
7065	117.788
11992	142.446
7913	558.577
10325078	0.0
92731	91.935
14256731	479.326
3168	20.943
11153	0.0
29005	241.075
7472	135.695
11207996	124.264
7694	237.747
11833	50.713
16388	510.340
455420	190.707
62249	83.924
10420	186.529
9243	0.0
55188	25.991
7482	186.970
11716	217.908
29016	170.365
7670	350.527
7340	642.883
7747	123.070
7624	128.777
7627	90.390
8568	217.366
14846	336.535
11045	167.648
11228	0.0
10709	19.965
109838	76.165
7478	113.493
10765	0.0
13849665	1026.544
7800	279.530
11148	0.0
11843	165.840
923	0.0
7475	134.814
12201	58.196
7515	120.108
29012	118.582
10797	136.247
11109	63.578
7538	223.576
7536	169.384
12972	401.434
61266	1431.503
24142	565.412
14829	0.0
23055	0.0
13622	507.090
7463	73.588
10571	48.469
16180	448.838
13836549	220.713
7891	390.715
12446	59.073
55123	161.355
10614293	226.507
29025	218.782
11755	31.335
12635	332.834
7706	76.213
7761	113.030
11121	111.225
7713	25.067
12809	275.398
11230	0.0
7833	163.658
10492	68.441
13837190	15.889
13839109	141.299
7556	0.0
12012	112.859
8158	86.177
66675	0.0
7871	364.253
3441	0.0
7954	0.0
9976	278.777
21153	422.221
14688	618.830
9391	0.0
8525	38.326
7514	139.542
11680	71.912
6176	0.0
6085	0.0
63631	0.0
13865630	316.664
7856	208.175
11706	118.045
7802	193.842
12218	306.642
56232	384.697
3973	52.052
6130	0.0
7534	226.688
10788	51.741
7621	106.046
10101	42.123
28986	158.182
13839575	140.944
12632	249.674
13836589	40.436
83734	0.0
9253	0.0
215929	195.304
10791	59.147
555074	111.9
7957	0.0
11125	70.822
7760	139.994
4516601	164.676
8562	106.293
2863	339.731
56442	0.0
4483639	25.971
11919	173.727
10653	20.692
8329688	0.0
7782	37.160
4516599	165.517
16387	437.156
10777	0.0
4512361	164.676
11095	89.534
11025	86.601
26325086	155.720
21106173	178.265
13835706	542.072
441	188.064
2282428	0.0
9251	0.0
13850879	1149.062
217	0.0
1114	0.0
7838	135.337
15486	346.518
56559	785.121
11898	890.437
4483638	25.971
6335	0.0
4449912	0.0
11526	16.537
6311	0.0
10054	0.0
7081	68.642
7607	45.536
7074	245.971
12456	257.376
72522	832.040
6313	0.0
7817	94.018
4512642	165.517
7928	773.646
7734	13.030
5949	86.872
62632	646.832
14348	715.257
7803	172.267
7076	231.774
78998	588.478
17880	201.642
370	226.557
29029	243.276
11884	471.929
2581	656.879
16177	413.832
7730	23.893
13866746	171.526
7016	25.506
15853	355.991
11864	148.013
9053802	551.548
21106586	237.941
67360	298.615
63863	148.802
11891	598.519
7732	21.281
18920	201.945
10113	0.0
11866	134.531
15846	242.074
11845	98.026
15954	138.672
11819	153.251
7566	0.0
29026	187.012
7772	45.492
11739	150.278
7917	540.195
6321	0.0
12209	54.178
11846	86.443
7622	112.514
11861	258.206
15016	789.994
11056	86.712
7915	481.937
23255	0.0
10787	54.810
123993	245.365
55090	0.0
11806	20.793
7630	70.264
8552	121.002
68179	166.080
7901	423.801
6121	0.0
7770	45.588
7558	0.0
11036	146.086
10001	86.827
7064	115.305
175	0.0
6146	0.0
6649	120.112
11029	164.649
6123	0.0
7892	365.889
8576	324.249
6095	0.0
9461	65.141
14692	278.591
11099	25.437
11193	48.639
256	16.089
11794	95.531
7851	210.948
15387	267.090
8012	42.593
7717	16.534
11732	75.573
10511	147.331
654	0.0
6315	0.0
6086	0.0
99440	193.456
11194	67.048
455353	167.916
11110	64.283
13848341	172.829
10265264	94.330
7850	226.876
7882	308.383
7577	0.0
29000	43.484
8574	251.612
11239	0.0
6165	0.0
11865	171.048
21011	48.424
4366810	295.181
512	0.0
11793	92.204
7811	105.439
7835	156.613
11216	134.452
13862665	77.107
932	196.145
22814	0.0
6341	0.0
11678	89.987
11543	141.597
62230	218.136
7533	262.657
13836399	121.231
10526	117.436
10422	240.544
12069	154.773
59483	545.764
13255	29.406
10179173	94.330
7701	74.697
6149	0.0
10790	59.959
71430	150.110
120464	33.330
172	0.0
11180	0.0
13865426	178.048
7434	226.125
259	36.943
7714	25.730
10512	67.891
7812	93.698
7769	59.670
7459	87.759
11024	81.264
7837	142.963
3644	0.0
16778	79.863
7705	79.269
191367	106.037
748	0.0
5091	805.371
10437	0.0
387	0.0
6312	0.0
6320	0.0
10947	25.882
6040	50.943
8398	21.315
960	688.598
6164	0.0
18410	306.195
7546	0.0
11756	24.438
7616	38.980
258	18.491
7716	22.831
7564	0.0
7024	0.0
7090	169.241
15438	166.369
11699	180.113
16791	147.073
6097	0.0
11799	63.629
6187	0.0
21800	86.478
18717	102.822
13837797	97.540
16641	0.0
10205670	0.0
12442	0.0
6186	0.0
60329	50.697
7790	0.0
1005	0.0
11210	92.707
6101	0.0
1004	0.0
2340753	0.0
10325184	0.0
24590970	0.0
11695	129.750
6102	0.0
13836591	42.890
7028	0.0
7615	30.398
13884973	170.015
7674	39.194
6406	49.966
682	0.0
13874867	110.429
10710415	171.592
6089	0.0
6087	0.0
6098	0.0
7733	21.623
9990	0.0
11727	0.0
7600	407.913
8896	0.0
7466	70.238
14751	125.240
1609	48.058
171	0.0
7727	18.381
71628	204.541
22408	0.0
7728	14.7
6338	0.0
13811	597.512
13871489	510.475
864	0.0
220998	474.413
221117	86.478
15765	86.478
11647	258.821
7506	359.831
7737	0.0
5439	36.140
7003	180.889
6322	0.0
13867413	50.677
553171	178.926
11525	26.258
8554	0.0
13571291	0.0
12066	0.0
7703	101.781
11265	221.083
12954	345.195
13229	426.958
59577	230.829
10053	0.0
10018	0.0
7787	0.0
26765	82.925
192642	56.878
11788	37.865
63156	95.157
122446	97.787
21181	134.303
26325090	218.104
13836520	125.977
6135	0.0
6309	0.0
12626	51.579
11632	211.265
9994	0.0
7636	17.313
13854944	41.756
7557	0.0
6125	0.0
120621	102.692
4449	80.182
55205	134.876
12445	177.3
14169248	206.046
7964	1101.140
6193	1537.291
62597	18.817
7559	0.0
7677	36.687
12197	0.0
13836674	0.0
11761	175.841
29015	0.0
9642	0.0
156255	0.0
20119	86.690
6118	0.0
363458	33.268
7684	30.660
71390	0.0
8544	0.0
12219	310.789
6307	0.0
7848	252.538
13816	24.480
15077490	0.0
19956441	115.999
12637	278.066
13872989	0.0
11752	43.987
8577	368.083
278	0.0
61487	0.0
11863	194.622
5708	58.485
10536	276.741
14349	309.767
7810	137.563
391	0.0
13835977	0.0
6334	0.0
592	0.0
13871721	19.557
374462	0.0
558883	26.348
56020	26.348
8908	0.0
376	237.077
10025	292.983
5004	407.542
2275	0.0
4446445	192.711
10124	0.0
7852	251.612
3951	0.0
7530	86.835
7766	82.587
6333	0.0
14680	193.858
7827	146.643
4514529	0.0
13835316	0.0
7711	32.484
12499	242.949
19953955	72.527
21109330	0.0
13638	194.806
72056	460.344
10948	19.524
7815	137.057
71312	0.0
2293678	0.0
2018460	81.161
29107	0.0
21169510	206.076
7552	0.0
5993	0.0
13835293	18.716
62589	36.980
7738	0.0
7686	38.175
7480	59.294
7776	82.461
127983	0.0
1087	0.0
6092	0.0
6042	0.0
6316	0.0
8878	0.0
34095	344.635
7568	0.0
10340	0.0
4444608	89.957
10939	71.397
11107	130.170
13835224	0.0
8141	0.0
9233	34.156
23621376	36.495
21111806	62.014
69371	333.375
66565	57.534
18685	287.515
15443	92.161
844	54.836
18607	36.329
11930	126.872
62628	231.412
67653	295.821
7030	0.0
11875	177.080
7721	32.852
2656	359.346
21108550	47.083
7560	0.0
13839416	125.765
13836021	17.678
13835861	0.0
7029	0.0
394562	17.072
10498	17.370
13839441	79.420
21112738	0.0
6104	0.0
4481813	0.0
60524	0.0
11729	0.0
9325	47.394
11694	147.221
11086	40.933
13849981	366.783
6103	0.0
5894	0.0
13835209	40.868
7788	0.0
13839553	13.671
6083	0.0
6314	0.0
61707	0.0
63054	190.228
4510484	223.511
15803	469.150
26563	688.962
70660	367.694
7679	27.694
13835235	0.0
1039	0.0
10772140	0.0
28994	0.0
4937830	0.0
29008	0.0
11809	19.375
8543	26.782
6111	0.0
68832	132.679
13842001	148.105
22191	209.203
75951	270.550
72793	273.391
72551	331.031
24641	359.670
11632871	627.570
33416	569.831
29001	84.077
21106032	73.078
8909	201.519
11857	0.0
7330	0.0
69982	327.183
21106015	0.0
552744	39.069
10464	43.161
61191	212.085
61001	452.786
8912	444.949
7791	0.0
13866593	101.436
7098	236.957
7026	0.0
553742	0.0
5977	0.0
13837702	56.580
13837537	0.0
9724	248.285
18801	138.576
59674	45.748
558928	0.0
6330	0.0
11244	0.0
7021	23.483
11795	85.713
10488	23.601
13647	139.605
6402	254.814
68156	89.977
71876	397.638
415	21.090
10487	40.507
763	0.0
13835336	0.0
24099	48.212
173	0.0
5730	0.0
7678	30.857
553642	206.190
13861343	0.0
13835550	0.0
8733	17.044
48024	35.709
10265270	332.581
693	0.0
124968	20.716
62808	20.478
8910	543.160
9614	23.926
60886	1036.484
28993	316.043
17131	531.150
13875283	65.701
9363	22.294
13849989	382.187
11351244	0.0
558020	20.610
7553	0.0
20939	328.920
518	N/A
6326	0.0
20198	752.634
1143	0.0
61111	22.175
4444456	28.106
2441	112.638
6296	376.790
391428	326.333
733	14.555
9970	67.629
8960	0.0
11117	0.0
191	182.926
13837280	0.0
659	0.0
1078	82.090
13835604	76.754
10772050	0.0
14198	253.304
71787	122.437
7528	89.532
6827	617.098
499714	113.805
7018	20.432
11911	0.0
6093	0.0
13836713	0.0
21106535	28.013
7013	32.082
59447	36.969
10179239	332.581
86007	1109.691
390927	426.975
10756	384.522
7961	0.0
12643	32.216
19231	75.394
13835630	281.168
13835459	0.0
9581	147.346
13875196	125.716
73412	88.732
13492	489.511
15747	549.839
7236	92.205
10410	341.261
1348	0.0
558878	369.546
5978	0.0
13487	427.661
6119	0.0
10404	363.178
13839199	34.942
9228	70.053
71089	33.019
6342	0.0
9574	205.424
83866	64.394
83850	64.394
9454	278.549
7419	294.265
1108	36.920
7128	221.349
8356	335.380
62530	208.286
7385	218.654
7170	629.390
8903	0.0
13842613	112.273
16159	76.506
7183	301.668
236	0.0
553578	369.546
7736	0.0
7242	113.167
7219	118.681
7521	89.550
7672	49.401
12010	179.005
24533	106.216
789	144.941
7088	346.108
1019	0.0
13835932	82.084
65750	350.047
15461	474.988
11830	113.155
6122	0.0
1095	0.0
7641	118.413
63903	207.829
10497	46.839
8904	0.0
7688	32.609
13874733	33.661
10437135	168.808
11660	184.328
1020	0.0
21106520	34.519
18724	326.783
11042	84.822
31029	0.0
21106560	110.908
21132380	111.725
8531	336.255
15855	417.573
6100	0.0
13837281	0.0
21105905	111.588
66809	93.148
7448	288.196
6179	0.0
7659	250.735
24535	433.627
15702	731.663
25552	324.456
11871	264.881
15409	449.303
20843	72.601
10940	77.077
10251740	90.775
11077	112.435
24972	164.632
9326	53.830
13885245	409.207
6524	1333.731
28969	246.022
6967	81.688
8900	0.0
12229	25.420
9360	71.746
10253	364.949
8902	0.0
9350	54.429
7786	112.585
6999	297.224
15965	411.779
6088	0.0
10937	75.722
21106036	231.3
6977	182.159
10364	103.316
62489	91.468
10384035	168.893
11409	207.394
8243	1401.722
7391	187.711
21108577	389.804
13257	68.865
70682	351.368
4228778	998.273
13658	270.595
28992	80.230
6528	1521.583
7739	0.0
21168808	0.0
8335	355.496
8374	472.922
21111820	0.0
6897	341.418
13863629	39.871
12228	N/A
21112023	212.570
6665	523.992
247721	433.393
10437215	232.474
11731	0.0
13865438	156.252
120489	88.322
2039535	168.870
13837319	1276.855
7278	321.077
13875160	95.423
8899	0.0
7238	98.096
21106135	187.882
773	0.0
2916	0.0
12225	0.0
10197150	86.537
55091	0.0
26325085	617.012
26325087	658.607
26325088	717.289
11862	232.648
8241	1138.129
3210	797.919
8950	221.460
7676	38.189
66996	34.220
10437074	33.350
66896	904.737
30595	379.336
7710	41.948
7809	171.448
63908	129.348
221226	220.524
21105959	177.329
66021	33.798
17443	87.149
84971	212.265
388391	212.265
10236	175.546
13837303	968.365
13648	172.895
2849146	222.055
222538	220.533
73390	310.756
10437335	310.279
11576	334.602
11589	324.593
7175	321.694
79969	519.655
11784	35.742
7765	107.084
6883	246.172
7241	83.044
13875230	123.710
7689	36.177
2038738	78.546
11785	34.865
9218	335.449
7224	87.663
11600	76.412
7551	0.0
558875	0.0
21106366	286.051
78	82.096
7225	81.624
10181339	301.629
13839308	171.820
65523	221.325
7157	360.655
2937774	377.696
502855	559.805
14556	327.105
30572	181.754
58234	123.358
67460	323.909
9349	62.623
8883	195.139
65936	77.618
13875281	85.287
4445317	922.262
10534	0.0
6898	458.709
13644	170.321
12061	249.416
29036	0.0
199342	884.121
66895	667.423
62534	209.378
62408	233.394
13837329	727.099
4489	60.876
15495	582.178
66887	605.592
7389	146.275
9893	393.917
63518	540.949
12060	267.409
62310	518.880
7420	313.085
13856009	170.603
59482	471.321
12816	81.019
14678	344.929
21171407	0.0
7984	118.485
28982	163.543
206561	281.653
19709	380.821
21168831	233.919
21105897	444.520
13860335	96.668
6881	288.545
55443	402.861
453675	465.985
971	28.953
9579	182.764
21105878	221.301
21168813	293.110
60121	257.581
15427	287.059
1141	64.117
63310	217.482
11021	157.327
305	472.198
13846663	406.164
79280	394.387
21106091	539.443
13876539	172.322
5830	186.583
69340	336.356
63889	73.407
2606	0.0
10992	190.225
8674	255.185
9943	81.508
7132	181.392
235	87.033
13839082	75.160
13839110	218.610
13840690	126.101
13871718	264.421
21105871	99.285
21105998	450.219
7131	192.192
13856352	210.282
13866817	101.469
24722	1741.319
7221	112.107
7223	112.549
9903	197.869
13839105	155.813
10246	290.138
18336	736.872
14866	574.134
466305	663.369
13865680	184.901
11604	193.557
13634	112.789
76394	119.896
440	378.439
28682	162.321
447	156.705
11667	165.774
13835772	70.843
6774	348.689
21168826	176.286
8071	277.0
13839128	159.611
194092	400.989
27296	301.773
28973	363.239
8186	254.443
13839123	163.103
11154	0.0
5979	0.0
7240	114.377
13857694	129.127
7220	119.919
7745	107.472
13839151	152.860
64699	178.263
12259	466.266
62517	259.798
13848467	228.256
13848808	341.733
9911	265.605
72556	292.360
15753	564.483
67465	564.096
7129	226.023
13837686	74.179
13839174	159.096
61538	260.128
12244	294.075
10248	303.747
61411	420.0
69177	426.282
13865424	145.939
917	605.080
7248	223.497
21106144	232.654
21106524	161.650
13863774	194.340
11651	231.333
16119	262.988
11610	357.505
11332993	393.784
10243171	352.5
10801842	438.424
11661	186.733
7138	131.838
12674	590.473
13837988	88.958
6775	243.377
11672	203.036
21106146	226.387
6108	0.0
21106008	453.053
8657	163.389
13875258	112.918
70715	42.316
70714	41.088
11596	390.173
10244	422.987
70988	495.146
86435	448.396
65785	528.921
70652	521.928
7673	46.714
6745	544.693
3544	844.379
8868	167.122
8097	316.665
11773	234.523
13875392	145.613
6916	525.393
21105859	224.433
13630	42.779
7443	111.780
8665	137.954
6633	174.376
16804	610.093
7406	390.029
6907	463.675
10892	363.963
10181338	287.884
299166	217.256
136966	196.507
120548	250.825
73479	199.261
11783	43.874
4611	372.310
13846749	392.238
13875432	103.962
12823	166.903
7176	294.946
221082	223.417
12231	72.934
21106519	365.233
13875219	80.112
8935	541.137
4514586	0.0
10181341	247.238
21106018	164.403
13835344	323.347
7685	44.488
238	153.125
21159695	286.151
13853758	294.775
13835151	85.671
13875320	98.108
14227	309.370
5709	143.508
12821	152.499
913	143.693
8070	264.775
7140	255.249
7190	220.677
7310	396.190
21106140	641.375
12478	128.208
1266393	134.370
455090	194.755
503239	188.902
10991	213.746
191058	446.912
10986	398.351
57726	343.134
21106525	179.047
13860692	112.934
13876103	495.234
7234	113.604
6621	231.839
9564	141.229
21111822	112.811
13869462	177.267
10254	295.503
11460	278.093
7397	276.257
6642	665.447
11465	381.301
11422	405.027
3918	1691.309
6794	477.830
21106014	169.253
5889	34.524
13835126	269.045
21111781	257.616
924	213.384
10857	168.136
8140	180.296
65	178.823
13860491	174.997
13863618	142.358
13860641	201.262
13869434	175.919
13854136	78.652
6781	326.762
13838404	0.0
13837760	60.498
6630	171.298
7383	274.166
123207	87.624
10008	32.609
1664	31.453
4878	82.488
21106020	205.960
61765	253.045
13862559	211.006
7662	283.423
21106148	259.473
10411	368.296
20570	203.975
13860775	171.697
2157	556.691
21105795	152.589
2241	173.939
10616	422.087
62466	283.478
62485	245.703
62472	475.546
11586	431.566
7518	119.921
4962	154.904
7681	47.196
21106013	239.504
10972	307.798
10980	263.222
6674	313.528
6035	340.691
21106900	446.872
2005981	0.0
81815	65.169
11584	373.482
7189	229.469
11591	280.249
13840647	169.251
13029	304.359
21106172	346.189
21106145	409.059
64155	550.772
13851576	151.975
13837787	197.749
68676	490.938
6635	542.155
11582	284.456
13853953	244.033
6988	171.839
11083	238.545
13854242	414.201
13869480	181.280
11585	315.160
11488212	360.414
13864445	200.385
86394	425.064
9965	351.833
2206	641.674
42330	840.284
4575	1309.116
2079	1099.617
4590	527.204
21108548	112.284
13854248	82.177
6974	86.376
6646	212.265
11629	311.6
21106019	154.835
509179	1209.866
89076	738.626
10664	198.732
13869414	151.576
7279	438.024
62964	1813.405
18219	64.490
13869451	118.050
880	276.827
75956	1088.120
6023	352.055
456015	146.110
13869339	91.274
13875441	123.329
206493	394.908
15093	335.822
4599	1536.364
1577	0.0
7239	159.122
434	269.719
6079	233.575
7202	307.470
764	62.628
10400	583.694
13662	163.571
955	173.603
13030	338.799
7001	307.993
71437	452.709
4759	1026.076
33617	1045.604
13872122	353.141
13842573	95.324
17347	381.962
21106581	365.096
10586285	747.595
11595	439.813
62060	2645.529
5976	133.785
63906	177.546
13835351	490.076
6773	519.294
30881	974.253
2923	316.796
21105870	270.709
6658	599.794
11422351	782.547
7208	359.704
71193	517.455
67270	530.896
6033	477.851
76154	689.247
3548	1103.714
642951	651.704
13860	270.374
40130	930.002
13860434	319.020
21111817	192.979
5596	67.933
5915	267.131
13047	507.312
25472	688.961
62467	299.268
14620	877.7
6828	564.818
21105848	336.411
11080	94.467
7211	298.270
7092	372.249
28947	510.408
11366	331.406
18	313.099
1446	308.349
71	274.061
7146	325.564
13860817	195.476
11625	455.814
12133	733.845
205483	351.252
1253	329.443
4745	774.435
392	71.757
11778	262.864
7172	333.201
13868640	141.071
18707	210.358
123	128.025
502245	607.320
13860720	192.442
21106571	392.348
21106163	358.181
44152	847.665
10257	381.523
13875356	176.966
19766	501.830
124	295.686
204209	910.224
7142	225.268
13853943	225.339
58563	221.302
10864	277.912
21106540	349.539
132	198.033
331	235.393
6550	351.075
78467	326.234
7315	653.675
11087	64.574
6339	0.0
13875212	115.925
21108576	248.269
26516	356.908
4768	988.840
20848	1009.037
4963	263.965
13859497	313.622
12640	0.0
6106	0.0
776	186.197
7145	219.132
6480	275.505
1448	422.822
38364	228.789
10343	593.790
559096	1849.225
3534	1464.050
8098	286.280
