Compound Id	AutocorrelationPolarizability [ATSp4]
6191	52.273
6153	0.0
16425	0.0
6190	99.258
11919	445.049
67991	239.332
291	0.0
6084	0.0
6094	0.0
7555	23.161
6120	0.0
7712	60.335
6308	55.796
9646	0.0
10781	356.430
15802	331.904
17976	318.310
7767	106.417
7604	109.057
7010	131.625
6163	99.089
6340	132.515
8560	157.830
11094	164.986
11023	195.955
11055	170.513
10786	231.046
7619	175.942
10755	225.024
11551	228.970
349	212.329
11035	258.255
11104	234.342
10795	355.837
10445	257.637
7849	268.576
17558	279.977
13439	361.646
13402	564.547
14840	325.799
13448	414.942
13619	383.561
7890	441.616
11882	499.832
11883	558.133
10540	674.853
7929	908.425
11897	966.824
11899	1025.224
12017	1083.624
12072	1142.024
11900	1200.424
11901	1258.824
11146	1317.224
11902	1375.624
10542	1609.225
11906	1842.825
8878	97.692
11585	567.008
13837650	26.064
13853215	165.360
9392	158.813
7674	231.306
6156	0.0
18410	374.111
7024	73.628
15438	242.849
8896	0.0
14751	344.590
221117	391.432
7787	128.855
8908	334.866
8909	403.039
8910	543.160
6188	244.034
10265264	353.397
10179173	353.397
21800	391.432
10325078	198.035
6111	0.0
10265270	744.536
15765	391.432
10179239	744.536
69569	479.857
5730	0.0
13837281	182.736
9724	788.997
7662	583.523
13862559	608.572
7518	430.520
21106571	900.882
13864445	656.514
21106163	886.350
21106540	942.711
6339	315.862
38364	742.264
27488	744.827
11776	831.180
25677	2321.985
158870	1577.177
157093	1483.281
83374	1486.228
457144	1590.736
135925	1664.803
457145	1559.496
84188	1651.884
136000	1614.281
135983	1522.679
136001	1531.960
136002	1641.096
136003	1530.868
84235	1437.190
82755	1891.654
82712	1990.960
157094	1831.559
103011	1902.633
102798	2090.998
82762	1919.745
11974	1325.288
56793	2265.438
454495	2238.377
40191	2194.720
56791	2153.579
35581	2181.908
56774	2724.098
82765	2645.575
27793	2128.616
82754	2012.830
457138	1905.527
102897	1912.216
457139	2034.602
102947	2059.046
97173	1940.671
102720	1944.306
102801	2066.773
102833	1967.220
102721	1933.061
102856	2037.108
102933	1875.347
103066	1951.157
97172	1771.021
106355	2006.944
102741	2407.668
97055	2323.888
97198	2411.857
34874	2160.882
36972	2169.516
56788	2079.203
533188	2147.790
35579	2105.339
16182	1999.259
46262	2106.180
35580	2024.121
82818	2137.034
56790	2269.946
56795	2095.778
33458	2289.985
82777	2069.660
35584	2068.040
56785	2069.045
56792	2029.681
34189	2049.796
34859	3139.674
84346	3153.629
56760	3056.241
56755	3187.537
33666	2974.488
36973	2630.670
37744	2678.435
46894	2605.383
45444	2540.899
56769	2705.212
56780	2589.013
34847	2573.271
39406	2555.236
35081	2467.172
56781	2540.112
56771	2498.302
102834	2577.675
102722	2440.526
154865	2388.780
96948	2350.342
102743	2467.617
102857	2277.332
154866	2365.887
106356	2419.873
102787	2450.964
97240	2524.949
102742	2463.368
97257	2995.393
97224	2946.728
102923	3078.686
96868	2844.580
96864	2830.510
97234	2905.353
97233	2914.249
154062	2855.437
97142	2979.466
56782	3578.464
36977	3616.933
83414	3491.446
84348	3738.493
82823	3528.408
36975	2520.910
56778	2502.687
43354	2435.836
37779	2603.592
45445	2416.515
36974	2446.218
35585	2456.608
34848	2372.018
84344	2542.310
34850	2445.228
82819	2566.070
56772	2450.032
82820	2497.857
16415	2805.244
56779	2520.512
56768	2374.741
56777	2378.427
84345	2468.2
34668	2400.603
96965	3471.666
33198	3559.886
82783	3052.747
34852	3006.492
37000	3083.896
37019	2993.808
56765	2959.356
39198	2927.698
82740	3238.133
56761	3061.827
56756	2994.882
56766	2988.968
83413	2913.949
34851	2940.249
36976	3025.563
56767	2861.941
56763	2783.138
56787	2050.778
35583	2000.034
82807	2026.937
56794	1999.107
33386	2012.907
33457	2211.155
47912	1988.391
82817	1988.404
46893	1921.280
33280	1945.874
35582	1944.487
33304	1951.011
46263	2050.372
15827	4163.919
33407	4023.281
36985	4177.892
35205	4065.159
15637	4108.372
82821	4085.408
34853	2886.527
37745	2967.816
36978	2871.057
34190	2856.042
34191	2877.902
36771	2910.882
36710	2805.786
56757	2856.071
549017	3090.509
84347	2863.907
56764	2882.771
56758	2858.199
47914	2891.551
56762	3041.385
33984	2821.742
33983	2756.956
34860	3476.130
82738	3424.666
36982	3468.711
36979	3459.891
47915	3527.718
56783	3392.562
36981	3367.646
37004	3567.838
36980	3401.491
82751	4632.515
36989	4679.511
33282	2349.532
46285	2474.789
46284	2328.201
82806	2351.417
56776	2330.599
47913	2432.925
32952	2286.677
45446	2288.081
43353	2309.788
56773	2336.025
33281	1854.075
56786	1939.449
56789	1849.913
33456	1846.320
46264	1904.448
36990	4017.630
35912	3913.140
45448	4012.155
36987	3951.898
36988	3949.921
33986	3342.118
36983	3434.377
36986	3330.201
45447	3626.638
35566	3413.146
47916	3277.982
46137	3425.328
550258	3308.909
33985	3276.362
15484	5257.419
34854	2781.746
46136	2749.104
82736	2787.299
56759	2731.137
36984	2685.285
56775	2231.110
56770	2230.426
35206	4510.685
34192	3810.637
82822	3848.964
35108	3193.868
33316	2620.318
21106570	1286.318
23208	0.0
4514529	0.0
6132	0.0
9016	114.595
4514586	0.0
4514549	0.0
11083	492.905
6988	519.535
11366	784.876
1253	546.023
3102535	177.170
6186	335.277
13836549	464.526
13868660	546.802
457140	1629.763
107412	139.954
12197	19.643
61346	113.854
6187	341.825
13866746	395.3
13857694	384.019
13866817	375.508
9253	174.645
83734	170.7
5977	0.0
29040	94.267
6108	0.0
10054	0.0
16841	70.505
13837280	72.274
9254	116.412
21106179	0.0
692	0.0
12201	110.617
6151	0.0
62827	87.267
8883	849.596
13837988	415.420
13875356	505.553
13875212	546.616
11038	616.583
2282428	148.168
9251	146.067
71312	182.341
11153	0.0
454215	89.269
15077490	211.730
2018165	27.541
6119	0.0
2293678	175.790
109705	934.965
10765	57.009
56442	24.814
4449912	24.814
22814	0.0
99596	161.806
13835316	0.0
6098	0.0
14694	65.755
13836674	25.169
13875160	352.261
23055	90.342
14829	0.0
6105	0.0
553742	27.815
6104	0.0
558928	27.815
6086	0.0
2056044	214.301
3441	143.687
6130	0.0
12577	18.424
34863	1886.237
34866	1818.125
34665	1741.226
34664	1763.505
37904	1873.112
34864	1768.177
34188	1809.805
34865	1731.041
34868	1706.629
37905	1798.696
34869	1671.732
37918	1771.991
37915	1633.1
34867	1652.927
25605	1737.279
26011	1618.488
34870	1671.747
34666	1667.205
21924	1599.512
34667	1570.431
34871	1563.699
34873	1539.231
56784	1696.668
34872	1531.769
8351654	177.916
22408	0.0
73583	211.481
2340753	86.186
10325184	81.892
21111806	208.348
21108550	208.666
9325	223.064
9228	284.328
4444456	74.689
11708	762.096
6093	0.0
6148	0.0
13838404	0.0
6179	319.885
748	0.0
9256	35.842
10614293	257.637
11109	108.513
24142	620.513
13622	562.155
16180	503.836
7891	445.589
29025	272.214
12635	387.476
11121	160.683
7713	61.362
12809	329.613
7833	215.669
7556	23.722
7954	0.0
555074	162.150
4516601	217.439
4483639	62.898
4516599	217.243
4512361	217.439
4483638	62.898
4512642	217.243
6085	0.0
8544	0.0
7788	132.619
6149	0.0
10053	0.0
11117	136.431
6827	931.486
7676	229.687
13875281	390.814
13875230	359.293
6128	0.0
391	0.0
71390	0.0
2916	0.0
558875	45.162
12446	112.077
7957	0.0
10113	59.614
6087	0.0
18971812	203.812
13299573	142.561
3631	183.424
15755	1225.963
67470	1200.3
15756	1124.181
15524	1121.464
14441700	61.633
2062437	131.982
11911	128.866
11154	0.0
30713	81.912
21106172	777.693
127983	0.0
11148	0.0
10512	115.135
10526	168.529
24590970	197.576
11865	224.245
6042	0.0
13875320	452.333
7673	270.501
13875258	404.951
13875392	415.082
21108548	429.493
14995	1288.703
14994	1280.003
15475	1267.310
15478	1189.937
518	N/A
967	1551.858
12499	508.926
71433	75.455
9484	0.0
11099	62.398
11110	110.627
11086	239.844
14692	333.451
24263	688.387
11857	343.584
391428	688.387
6309	59.185
7557	24.290
558883	63.945
56020	63.945
553642	412.375
16791	195.160
454209	55.563
9633	233.0
9377	126.386
9243	0.0
923	0.0
7850	281.212
7714	66.002
10437	24.590
6097	0.0
6083	0.0
10487	247.867
9614	163.215
13861343	163.477
11756	44.838
15476	1205.866
274	0.0
56144	327.853
11864	197.596
11845	144.163
6125	0.0
12456	310.101
17880	253.227
7558	19.117
29036	0.0
1087	0.0
7001	767.671
10606755	165.846
55075	1985.497
13868640	490.489
11351244	104.651
7090	347.405
7553	32.761
61213	59.497
23886	1488.090
33421	1516.062
15477	1298.665
26010	1462.549
30600	1386.493
33455	1393.154
33934	1355.532
33932	1409.762
15473	1291.896
17099	1338.826
17098	1263.428
33933	1329.115
15474	1235.849
63863	142.652
454638	2736.065
6121	0.0
6315	60.173
7330	0.0
6307	75.611
12219	368.373
7848	310.007
11863	251.770
7810	193.884
7766	136.889
7711	82.031
7552	32.121
6092	0.0
6088	0.0
26516	565.659
11087	358.190
8543	71.864
12209	94.546
9286	24.567
11806	51.373
6342	172.778
120464	241.471
7733	50.211
7738	0.0
21111820	98.019
8329688	78.832
6735	1070.684
92731	315.634
6326	68.062
19766	1133.809
6665	728.798
512621	N/A
9642	0.0
10124	142.003
6118	0.0
12010	247.337
11830	183.152
10497	116.716
31029	49.001
10340	58.694
1108	213.794
236	116.939
13875283	265.188
13840690	342.472
6737	961.986
6789	893.709
15620	1456.552
2927	2284.431
3973	231.107
12442	19.250
6095	0.0
10675065	122.984
11961	836.971
21111772	823.644
12228	N/A
1406720	2773.421
6364	782.206
7180	659.413
7182	665.503
10669	656.154
55090	106.855
61487	126.023
6100	0.0
10410	497.458
13492	662.017
15747	721.640
13487	601.378
7385	401.948
10404	538.913
7419	473.220
7219	321.839
7739	0.0
9903	488.232
8868	421.018
16159	288.0
13300034	2059.403
2018460	285.996
61149	265.505
11954	877.181
13029	811.953
13875432	316.365
7151	1074.435
63054	436.607
7098	431.039
9095782	132.684
6635	919.217
8356	587.029
7128	456.687
15461	813.926
7521	330.009
7641	335.475
7672	290.384
6967	366.936
21168808	100.751
7220	327.250
8876	746.604
2928	2666.554
13030	776.223
13875441	368.009
10975	646.152
10870	689.044
218253	1153.858
15488	1067.812
6122	0.0
11727	11.241
6316	63.406
12674	892.249
8097	706.511
21106032	124.446
551	1187.461
15621	1373.003
6106	0.0
38403	111.476
7551	42.922
21111822	402.947
7681	269.353
8140	516.555
9360	231.758
61191	426.644
66675	234.354
20939	659.888
6999	716.739
7088	620.709
8531	588.496
7448	574.773
11660	449.238
8335	650.205
11409	501.319
7248	465.318
11661	456.223
221082	410.025
67653	352.064
10831	1164.761
26260	1392.867
2283071	1642.538
21112738	20.437
66567	281.249
65	513.419
11769	478.366
15489	1042.644
6828	853.910
7183	596.159
7659	483.465
10253	665.197
6977	510.820
10236	552.470
7129	466.954
10829	1170.449
68437	1444.772
906	681.419
8067	1744.316
14198	804.853
10979	668.792
7181	665.529
13836713	33.056
6103	0.0
7170	916.061
10534	361.330
21171407	49.761
71437	1331.587
13063	1001.167
13851576	392.281
7302	754.659
2915	1623.820
62826	173.905
11369	1840.656
10857	556.611
13875219	311.398
13842573	360.268
10432	464.397
541032	1352.214
17619	N/A
4611	546.707
9990	20.745
28993	418.220
7815	192.946
7560	32.416
7721	81.773
12259	1006.376
11667	417.484
10851	1097.137
10813	1176.921
8807	1251.222
16641	0.0
11731	55.296
8950	407.842
13677	1087.426
6736	912.604
10849	1100.587
15619	1309.797
4932499	1687.015
6057	2238.134
13860817	560.720
11778	535.260
12640	52.093
6480	612.176
776	465.094
13047	1124.171
18707	584.825
21106018	488.549
6402	808.857
68179	213.340
10850	1113.491
9350	231.082
10664	394.775
8577	425.477
14349	367.104
7852	308.797
14680	250.661
7776	136.222
7420	491.916
66565	191.576
6592	1319.592
21106020	458.323
13853953	513.232
10364	294.918
13860720	561.138
6633	555.103
69371	342.051
6478	1230.163
6788	851.748
73412	147.518
10909	1030.020
10918	1031.704
21168831	424.046
10841	1153.306
15861	1350.709
21106146	440.604
21106013	468.853
21106036	435.838
9187483	2028.779
7736	0.0
21106169	25.357
12821	350.355
10400	852.434
1095	0.0
70682	412.194
11862	294.451
12044	1099.876
12045	1025.714
12047	1006.893
12699	1865.639
10864	590.838
7568	15.994
9326	249.582
10980	562.205
955	390.566
10772050	193.204
6079	501.616
9461	92.413
7817	133.345
7732	49.278
1039	0.0
11871	367.316
7786	203.122
9581	327.175
7710	108.673
7809	234.672
7765	173.331
13872122	531.532
2923	703.993
9574	403.560
10972	579.997
11294	1135.617
6588	1042.249
6642	1327.559
13875196	325.417
10908	1086.282
12682	1274.849
21106144	479.986
13863774	432.976
7138	311.606
66655	311.052
24326358	1235.494
7238	275.011
12069	201.735
191367	149.189
11799	100.809
21106014	461.324
12478	346.322
7315	849.062
23150	197.475
11729	37.317
14866	922.827
21105959	436.832
13865438	393.422
21106135	399.884
7383	470.027
62534	435.437
62408	483.247
7389	312.845
13869451	348.494
6974	400.698
7961	96.159
13835772	320.611
971	183.180
11588	689.772
8800	2370.039
66656	N/A
21106019	414.021
7615	59.046
13647	334.588
7013	160.230
6135	0.0
13854248	378.423
13869339	341.955
13837686	343.094
13839082	290.995
553649	920.731
10536	355.480
7239	417.477
7391	346.092
21111817	531.565
6102	0.0
4444102	2257.040
69982	771.065
9233	91.395
387	67.820
7299	859.254
7224	267.657
5739	2499.6
8804	3368.694
6338	26.918
13863618	380.552
278	0.0
29153	2455.610
5979	581.666
7827	216.121
18607	86.846
18219	161.505
11783	252.277
10586285	1035.052
21105871	294.478
6739	833.539
434	513.656
10205670	18.079
24043	157.843
68676	863.221
6852	919.247
7546	45.460
15495	777.270
10328	524.824
7145	429.301
13846959	411.585
937	0.0
9363	149.906
62632	700.483
78998	642.109
11884	525.446
16177	467.214
15853	409.126
67360	351.303
11866	182.548
15846	293.960
29026	237.484
11846	130.304
7770	82.658
7717	42.596
19475	83.146
7685	253.737
87265	588.195
21106148	495.540
8817	2611.661
7566	14.797
13853943	465.833
15486	411.180
18920	254.717
9391	74.648
28982	405.135
13839110	431.467
9824	1528.655
11434292	N/A
65763	732.671
68328	435.760
331	467.459
21169510	385.799
7689	214.170
63906	469.958
2246	3642.681
13837787	411.869
13839151	492.828
13865680	444.834
11604	410.623
12060	488.236
14678	561.079
11489	554.337
2991	1041.455
21106365	1774.618
23101	421.406
55123	206.780
12012	154.416
11125	106.345
7782	65.059
7734	32.650
7577	10.474
13630	252.566
7278	493.563
6781	547.376
13839128	453.502
7202	581.006
235	269.435
11584	671.719
13571291	15.285
6807	1217.735
13839174	489.168
13839105	459.842
13846663	717.285
8657	356.203
11589	599.875
9579	400.775
11755	63.470
7761	159.191
10492	107.714
11784	213.228
11785	213.632
6311	36.947
21106524	432.432
89076	1058.1
14227	567.410
19476	134.108
2185	786.245
62484	806.654
6838	1348.660
10257	591.652
8799	3571.767
10498	46.975
9349	256.518
13839123	455.308
11576	670.765
8071	561.890
21105795	352.899
8374	640.591
11761	249.059
7956	0.0
6794	718.715
924	441.315
12637	325.476
6775	492.552
5889	205.845
21106091	914.025
3951	87.175
763	0.0
5882	579.292
7140	483.856
238	348.049
9994	0.0
61001	684.540
2003	5480.3
21168826	396.878
20124	936.134
8816	2859.978
8788	3833.885
11672	444.9
29008	0.0
6550	710.017
6688	1000.585
61538	692.753
10246	661.991
79969	763.866
15093	566.757
7176	531.516
6840	1357.472
7616	70.212
61111	149.880
4446445	244.735
4444608	135.187
394562	44.899
30595	639.717
8899	0.0
13876539	355.547
62310	717.276
7234	310.385
16804	1222.175
21105998	754.617
12244	654.337
61411	922.529
6333	34.872
6706	728.871
8060	1118.293
8341	787.997
10441	17.790
11833	86.608
6406	157.590
13835126	553.736
65701	751.057
6023	593.849
5678	3563.281
10248	652.352
69177	917.432
10244	914.462
9911	648.632
1005	33.847
8552	167.610
7803	221.771
171	0.0
122090	574.281
8070	526.801
13846749	606.328
13859497	576.167
10652594	N/A
11841	243.199
11749	86.386
8569	225.822
12220	331.826
7823	128.885
11849	130.671
3168	48.354
455420	240.130
10709	47.114
13837797	134.195
71876	494.784
18688	311.726
62249	242.150
55084	341.885
7694	284.198
7482	232.239
11716	280.089
7515	176.809
7076	325.410
7757	523.381
7511	407.306
7509	349.709
29005	292.670
10420	236.512
7475	181.669
7463	129.462
11910	66.270
7872	375.464
7875	491.061
7913	607.499
8568	262.499
14846	406.684
7800	349.050
11843	208.339
29012	157.103
7538	292.009
7536	235.980
7706	110.370
11680	130.010
11706	181.637
10653	83.363
7012	100.034
11065	80.717
28981	319.189
8525	68.936
7081	184.588
6313	36.145
6335	32.798
441	238.899
7838	183.806
5949	131.305
29029	295.468
7772	83.262
256	42.643
512	14.450
172	0.0
15443	289.949
66021	198.410
8674	463.076
13863629	100.654
13835351	753.524
6773	807.305
16736486	5729.457
6621	535.766
13860641	486.967
21106525	438.266
13854136	354.897
13835151	320.167
10991	446.227
13860692	325.176
1019	0.0
62517	431.354
10903	961.767
6177	151.190
7064	225.003
6341	83.453
259	70.750
13249	683.672
7701	116.589
7888	450.504
12013	566.968
2863	392.507
7866	334.842
10033	800.445
370	277.777
12071	917.237
10035	975.636
4963	508.088
6907	669.859
553171	265.188
2041618	N/A
9411	142.994
7559	14.938
15965	581.922
6897	519.238
6883	446.038
7211	535.475
21105897	652.102
5439	65.402
7190	474.867
7469	204.6
10001	118.576
11625	676.140
6586	1109.578
6675	817.140
472932	193.987
7073	329.361
8554	105.248
55130	245.474
10433	235.808
11992	187.262
7671	338.469
10446	174.612
7657	246.207
22453	304.861
7065	209.602
11045	226.940
7472	194.653
11207996	196.927
29016	215.848
7747	163.006
7627	115.813
10571	152.357
11647	407.623
66809	255.812
13865424	389.917
7175	578.614
7157	589.932
21112023	447.451
11582	499.407
7172	545.069
16119	686.012
864	0.0
79280	555.027
28947	683.887
7042	725.668
13837760	277.594
76894	N/A
205483	617.095
7737	0.0
6322	44.042
7132	393.023
8763	4947.658
13848808	574.255
10837	709.096
13869434	496.295
21159695	523.244
6835	993.271
21108576	513.826
7533	354.843
56559	840.905
9053802	607.318
29000	89.763
7434	334.723
6312	41.464
8398	109.059
11898	944.346
72522	885.947
7928	827.550
14348	769.156
2581	710.768
11891	652.390
7917	594.031
7915	535.709
7901	477.455
7892	419.327
7882	361.430
8574	303.955
932	247.242
7812	138.920
7837	191.887
6040	90.057
258	48.031
1004	16.795
682	0.0
13872989	17.302
8665	352.551
6950	401.922
552744	73.747
70806	2000.664
11671339	927.734
10251740	160.956
69914	909.431
13862665	113.071
21168813	535.751
175	0.0
6630	536.042
13840647	537.432
13860491	498.298
13839012	1015.083
20545	872.196
8012	160.001
9564	401.423
7044	839.037
11003	833.965
10452	453.025
6314	37.885
4510484	330.406
66896	1085.716
10437074	197.362
21105878	455.968
13839308	352.645
6753	1557.474
374462	92.707
13869462	496.706
21106519	597.119
13860775	423.533
21106015	18.051
11809	52.751
12823	431.413
6649	258.094
6035	595.408
61739	944.976
392447	490.567
7142	435.696
66895	849.805
66887	789.208
9893	588.699
63518	726.730
59482	660.811
10696	822.785
67414	1412.742
7074	338.005
7670	371.053
10797	292.910
6176	185.109
7534	324.144
10791	186.721
28986	218.175
10788	189.358
7621	141.708
10777	103.847
12972	460.072
9976	339.317
7514	214.784
215929	271.990
11025	158.451
7016	104.505
7871	418.455
21153	476.616
7802	245.974
12218	360.497
12632	302.905
7760	190.214
11095	136.507
7607	86.334
6321	42.935
558020	137.269
7790	65.901
6881	506.579
12061	431.109
67460	500.671
6790	836.442
8319	893.241
62964	2008.271
62467	554.329
11193	279.082
11591	536.660
10411	590.655
10181338	538.419
59573	112.385
14998	108.126
13837190	35.895
1020	107.140
8141	50.404
8186	525.358
11600	188.906
10169	2202.914
10343	883.998
447	384.507
12643	204.866
13846658	950.735
11596	617.587
28973	549.219
27296	489.952
11651	426.563
466305	820.485
9218	488.342
8183	591.082
7189	478.655
4878	256.682
13848793	654.551
21108577	642.618
123	348.678
26824	672.378
7028	62.292
7478	148.715
62489	257.998
21429023	5729.457
2275	15.525
13835344	589.690
11793	144.045
13871721	50.390
6164	75.192
65785	744.494
6674	643.343
10616	644.303
526	493.419
11228	43.816
7003	275.795
21106520	198.001
13874733	198.491
6780	646.056
8098	649.662
70714	234.646
28969	382.1
7241	248.888
6577	1162.165
9120	666.652
13853758	583.947
11525	113.036
4481813	14.791
13876103	753.440
8058	1072.471
6593	1288.299
14672	79.263
13850082	821.816
63903	381.466
17443	238.394
62808	137.138
6855	1090.072
13638	389.626
18717	306.963
15954	271.405
7622	151.598
7310	540.979
63156	141.514
12626	91.906
28994	13.573
61765	462.899
10772140	36.379
13860335	284.539
10939	327.538
3463	5204.196
7679	188.063
6296	624.491
5894	27.284
11586	684.315
1448	671.940
217	0.0
7459	168.747
11024	171.374
7026	56.588
11239	110.557
11861	311.893
11036	225.742
11029	231.034
11794	144.025
10511	198.517
21011	92.476
11678	167.992
3644	0.0
6320	45.927
10947	110.775
10787	199.865
60524	37.083
