Compound Id	AutocorrelationPolarizability [ATSp4]
692	0.0
6153	0.0
127983	0.0
291	0.0
21106179	0.0
16425	0.0
23208	0.0
6105	0.0
11148	0.0
274	0.0
6086	0.0
9256	35.842
923	0.0
937	0.0
6085	0.0
217	0.0
9484	0.0
22814	0.0
22408	0.0
9286	24.567
12577	18.424
6084	0.0
6128	0.0
9243	0.0
62827	87.267
6132	0.0
391	0.0
38403	111.476
1087	0.0
16641	0.0
7954	0.0
864	0.0
11153	0.0
748	0.0
6095	0.0
6094	0.0
518	N/A
16841	70.505
6148	0.0
2056044	214.301
6151	0.0
6087	0.0
9095782	132.684
4514529	0.0
10675065	122.984
21106169	25.357
172	0.0
763	0.0
7956	0.0
7577	10.474
6089	0.0
6111	0.0
29040	94.267
10606755	165.846
6098	0.0
6120	0.0
13837650	26.064
13853215	165.360
61149	265.505
12197	19.643
682	0.0
61346	113.854
7558	19.117
7556	23.722
454215	89.269
7557	24.290
278	0.0
7957	0.0
654	0.0
9461	92.413
6130	0.0
7555	23.161
11727	11.241
1114	0.0
14441700	61.633
8960	0.0
6083	0.0
454209	55.563
56442	24.814
6101	0.0
6097	0.0
175	0.0
4449912	24.814
6102	0.0
9016	114.595
7559	14.938
2018165	27.541
7733	50.211
3644	0.0
6156	0.0
512	14.450
171	0.0
9646	0.0
9254	116.412
7734	32.650
9411	142.994
13835550	19.490
6135	0.0
13837190	35.895
10325078	198.035
7732	49.278
6335	32.798
7738	0.0
14829	0.0
4481813	14.791
10765	57.009
71390	0.0
6149	0.0
13872989	17.302
9391	74.648
6146	0.0
3631	183.424
6121	0.0
61213	59.497
3441	143.687
11099	62.398
11806	51.373
6308	55.796
3168	48.354
6104	0.0
1004	16.795
66567	281.249
1039	0.0
7713	61.362
73583	211.481
6103	0.0
7566	14.797
9994	0.0
10709	47.114
6309	59.185
6088	0.0
13299573	142.561
13836674	25.169
13835316	0.0
6092	0.0
14694	65.755
6313	36.145
11230	53.256
7564	21.261
7616	70.212
2062437	131.982
7712	60.335
4483639	62.898
10437	24.590
30713	81.912
2282428	148.168
6188	244.034
4483638	62.898
7330	0.0
12442	19.250
7546	45.460
9251	146.067
18971812	203.812
71433	75.455
10113	59.614
11755	63.470
7790	65.901
107412	139.954
56144	327.853
56020	63.945
13835977	21.807
256	42.643
10054	0.0
1005	33.847
553742	27.815
558883	63.945
99596	161.806
6333	34.872
6321	42.935
23055	90.342
8525	68.936
6125	0.0
4514586	0.0
11526	64.999
6322	44.042
6320	45.927
13836549	464.526
6163	99.089
62826	173.905
6108	0.0
11729	37.317
14672	79.263
6118	0.0
7730	57.744
11756	44.838
8544	0.0
23255	53.119
6312	41.464
6338	26.918
12201	110.617
62597	48.979
8329688	78.832
13837797	134.195
10653	83.363
13835336	15.322
7782	65.059
21106015	18.051
7727	44.389
558928	27.815
6093	0.0
693	0.0
11110	110.627
6311	36.947
8896	0.0
5977	0.0
7728	36.885
2340753	86.186
6340	132.515
9253	174.645
7626	147.033
7604	109.057
7553	32.761
12209	94.546
394562	44.899
10325184	81.892
83734	170.7
6315	60.173
7627	115.813
7717	42.596
387	67.820
60524	37.083
11109	108.513
63631	126.922
6100	0.0
13866746	395.3
7010	131.625
14998	108.126
12446	112.077
7560	32.416
258	48.031
10053	0.0
124968	137.212
7716	57.046
7552	32.121
7737	0.0
10571	152.357
17619	N/A
11809	52.751
13836713	33.056
13836589	69.533
11833	86.608
13835235	11.847
7767	106.417
7030	32.903
13836021	45.201
10124	142.003
59573	112.385
10777	103.847
6341	83.453
10018	84.264
558020	137.269
12626	91.906
13836591	71.971
11996	141.605
6165	85.222
7714	66.002
13862665	113.071
6042	0.0
7630	89.987
259	70.750
7607	86.334
5894	27.284
21108550	208.666
7772	83.262
21111806	208.348
236	116.939
9614	163.215
62808	137.138
10492	107.714
7736	0.0
11055	170.513
10446	174.612
7463	129.462
7619	175.942
7016	104.505
13871721	50.390
7739	0.0
7706	110.370
7028	62.292
5730	0.0
6316	63.406
8903	97.821
24590970	197.576
21011	92.476
9325	223.064
415	53.875
55090	106.855
10947	110.775
10772140	36.379
28994	13.573
13839553	37.613
3973	231.107
71312	182.341
3951	87.175
592	67.596
8904	97.892
8899	0.0
60329	82.460
6406	157.590
2916	0.0
2293678	175.790
6119	0.0
29015	84.607
11680	130.010
7624	169.732
7615	59.046
7090	347.405
6122	0.0
7024	73.628
55188	188.981
11117	136.431
13835224	33.512
6176	185.109
62249	242.150
13803	166.037
10755	225.024
9377	126.386
15077490	211.730
7823	128.885
11125	106.345
6307	75.611
7787	128.855
6334	40.727
13255	148.761
109838	109.440
11849	130.671
173	0.0
66656	N/A
13837280	72.274
11845	144.163
11094	164.986
13854944	85.372
29000	89.763
8398	109.059
10791	186.721
8733	45.223
10786	231.046
8554	105.248
92731	315.634
7788	132.619
9233	91.395
1020	107.140
11992	187.262
6187	341.825
8158	220.273
11023	195.955
11731	55.296
11207996	196.927
1609	82.952
7721	81.773
1095	0.0
11121	160.683
10498	46.975
7065	209.602
7791	123.074
109705	934.965
7636	92.161
7621	141.708
11551	228.970
13835836	189.923
7711	82.031
8543	71.864
6040	90.057
10445	257.637
11351244	104.651
7770	82.658
23150	197.475
12161	218.019
13874867	156.848
31029	49.001
4444456	74.689
7769	102.211
18607	86.846
10001	118.576
7747	163.006
10788	189.358
23621376	67.323
5993	34.185
8560	157.830
555074	162.150
10437074	197.362
13861343	163.477
7705	117.782
8141	50.404
10512	115.135
11180	201.956
7701	116.589
62589	222.629
7686	222.831
5439	65.402
11056	149.161
7026	56.588
66675	234.354
2005981	0.0
7622	151.598
7684	186.320
8900	0.0
11025	158.451
7475	181.669
59674	79.330
21171407	49.761
11095	136.507
13837537	100.216
10614293	257.637
6326	68.062
56117	228.494
7466	123.426
29036	0.0
7761	159.191
21168808	100.751
11104	234.342
16778	112.311
13835376	152.247
127750	152.641
10790	196.997
2018460	285.996
68503	273.341
13863629	100.654
7674	231.306
1143	0.0
1108	213.794
7029	41.189
29001	112.868
11788	222.038
11732	143.178
7688	183.698
7515	176.809
11794	144.025
13836520	160.444
11678	167.992
2038738	230.849
8562	150.497
29012	157.103
21106535	128.185
13875283	265.188
13867413	102.480
13837702	98.092
5949	131.305
71089	184.405
7551	42.922
11706	181.637
66996	199.270
61487	126.023
10797	292.910
26325086	331.914
7478	148.715
11799	100.809
13839199	198.791
13835459	117.489
11793	144.045
10534	361.330
9326	249.582
63863	142.652
659	0.0
7459	168.747
10787	199.865
12228	N/A
18688	311.726
10795	355.837
55130	245.474
11086	239.844
11841	243.199
12012	154.416
4489	264.953
48024	213.614
11024	171.374
512621	N/A
66655	311.052
21106032	124.446
6330	40.447
11035	258.255
13439	361.646
7021	94.439
7018	97.836
120464	241.471
11864	197.596
4444608	135.187
10948	90.475
11761	249.059
12229	168.716
24099	86.223
22453	304.861
12499	508.926
7833	215.669
7657	246.207
7013	160.230
13837281	182.736
5708	154.647
7703	153.151
4512642	217.243
4516601	217.439
11244	93.599
4516599	217.243
11846	130.304
7812	138.920
10652594	N/A
7766	136.889
844	76.582
13816	99.393
19953955	110.118
7776	136.222
1141	208.036
11857	343.584
66021	198.410
10497	116.716
70715	237.590
21106520	198.001
66809	255.812
10452	453.025
10433	235.808
29107	99.020
10265264	353.397
13874733	198.491
11911	128.866
7811	153.058
13836399	158.408
7676	229.687
7064	225.003
349	212.329
10488	155.172
4514549	0.0
11193	279.082
4512361	217.439
11739	211.172
8552	167.610
8908	334.866
28986	218.175
10526	168.529
17443	238.394
68832	189.419
21800	391.432
10179173	353.397
81815	117.542
29016	215.848
7003	275.795
59447	213.625
13839109	177.748
13865426	210.774
7678	199.294
13842613	314.622
71430	261.118
7760	190.214
971	183.180
10420	236.512
11695	173.978
12643	204.866
7219	321.839
11784	213.228
7482	232.239
13838404	0.0
7679	188.063
15443	289.949
11434292	N/A
65936	231.712
13835209	75.270
7677	222.997
6342	172.778
15438	242.849
1348	61.321
11216	272.833
68328	435.760
4517338	144.973
11194	341.413
11819	208.475
13402	564.547
20843	321.766
55091	221.107
10487	247.867
15954	271.405
11045	226.940
11210	333.905
7521	330.009
7641	335.475
11543	266.066
13638	389.626
11752	82.567
7242	301.026
11843	208.339
7530	328.839
15765	391.432
10101	120.720
16791	195.160
11029	231.034
9633	233.0
28992	288.070
18717	306.963
6106	0.0
99440	224.479
7838	183.806
120621	136.124
9581	327.175
15413	361.324
7710	108.673
7536	235.980
7689	214.170
10710415	240.380
14751	344.590
7073	329.361
24533	281.784
7238	275.011
13835293	158.562
13866593	148.343
13875196	325.417
120489	237.343
10197150	130.273
374462	92.707
13839575	176.220
8569	225.822
11600	188.906
5889	205.845
191367	149.189
6967	366.936
192642	178.103
1078	125.792
23101	421.406
17558	279.977
55123	206.780
68179	213.340
733	72.562
11042	308.617
21132380	314.478
9349	256.518
73412	147.518
235	269.435
7827	216.121
68156	134.399
773	0.0
17880	253.227
20119	130.318
70714	234.646
7225	250.795
7786	203.122
7224	267.657
13448	414.942
7673	270.501
10940	343.911
10939	327.538
13842993	432.690
29025	272.214
1664	190.936
7128	456.687
455420	240.130
11866	182.548
21105905	301.836
10772050	193.204
26765	151.668
7681	269.353
7837	191.887
553642	412.375
21106560	303.017
11830	183.152
7810	193.884
7815	192.946
13842001	264.061
21169510	385.799
11930	269.085
10437135	305.993
7835	207.221
19956441	159.242
78	249.719
67991	239.332
455353	209.291
13875281	390.814
2039535	304.027
13837686	343.094
7240	306.276
123993	424.646
7849	268.576
7803	221.771
11783	252.277
13839441	121.110
18219	161.505
83866	298.781
13875160	352.261
11865	224.245
11077	313.214
21106586	367.445
13835772	320.611
83850	298.781
7221	308.230
11699	226.352
7385	401.948
7391	346.092
7670	371.053
13860335	284.539
19231	238.573
29005	292.670
7443	315.548
22191	251.510
7802	245.974
7389	312.845
7241	248.888
6179	319.885
7694	284.198
24972	452.627
62489	257.998
6286	271.773
7528	328.992
11660	449.238
62230	424.462
8568	262.499
7129	466.954
69371	342.051
10784857	N/A
21105871	294.478
13839082	290.995
63889	291.509
21109330	307.840
10937	344.372
7236	284.576
1577	46.060
122090	574.281
8909	403.039
11716	280.089
12231	331.099
10384035	301.903
6270	506.839
156255	184.407
7659	483.465
11409	501.319
6402	808.857
11919	445.049
7856	258.060
13257	271.985
21106036	435.838
13840690	342.472
7765	173.331
7538	292.009
71787	175.479
441	238.899
2606	205.307
11795	131.540
6287	282.219
14692	333.451
7223	312.363
7685	253.737
123860	242.937
7672	290.384
9970	421.116
13857694	384.019
16159	288.0
7088	620.709
28969	382.1
12069	201.735
11265	371.063
13648	367.785
13876539	355.547
7533	354.843
7131	409.582
7434	334.723
13866817	375.508
6977	510.820
13854136	354.897
447	384.507
13837760	277.594
13835151	320.167
191	231.040
7234	310.385
71628	321.532
7132	393.023
11087	358.190
18801	186.937
13837988	415.420
10696	822.785
76894	N/A
12456	310.101
12445	202.584
69569	479.857
12809	329.613
7138	311.606
10236	552.470
13863618	380.552
4446445	244.735
3954	155.852
55205	182.421
11021	406.692
14198	804.853
29026	237.484
5976	289.037
13875258	404.951
9903	488.232
7183	596.159
21181	206.949
13839416	172.153
7851	263.274
18410	374.111
13865680	444.834
21112023	447.451
503239	393.472
4878	256.682
932	247.242
12010	247.337
63908	332.403
5830	368.907
13839308	352.645
14680	250.661
28682	345.986
14169248	299.246
63310	581.398
11671339	927.734
391428	688.387
122446	279.228
238	348.049
7239	417.477
11863	251.770
2041618	N/A
13851576	392.281
13854248	378.423
10437215	362.506
8070	526.801
370	277.777
455090	387.989
11632	283.624
14840	325.799
2656	1003.680
78828	674.481
10422	291.195
20939	659.888
69914	909.431
9976	339.317
73479	477.621
924	441.315
6883	446.038
5979	581.666
577	234.134
13658	641.380
21106366	444.749
7419	473.220
14299946	746.223
331	467.459
7448	574.773
7509	349.709
12632	302.905
61001	684.540
28982	405.135
11604	410.623
62534	435.437
62408	483.247
123207	338.476
75951	312.449
13837787	411.869
13839123	455.308
59483	651.653
18724	593.525
7850	281.212
13875432	316.365
8665	352.551
13839128	453.502
13875219	311.398
456015	370.434
55084	341.885
6974	400.698
8657	356.203
13849981	504.035
26824	672.378
72793	338.779
21106014	461.324
6296	624.491
14256731	589.423
13860775	423.533
7140	483.856
13869339	341.955
13647	334.588
764	254.884
7800	349.050
8071	561.890
13835932	196.235
7809	234.672
4449	366.745
13839110	431.467
29029	295.468
21106525	438.266
7142	435.696
132	430.410
12220	331.826
20570	414.231
21106144	479.986
7190	474.867
8140	516.555
13869451	348.494
15461	813.926
76394	326.172
7518	430.520
8520	651.228
8883	849.596
6079	501.616
2931	310.168
10536	355.480
25552	582.777
13848808	574.255
10181341	407.355
10328	524.824
15846	293.960
5596	309.448
4962	399.191
13869462	496.706
11871	367.316
10265270	744.536
222538	399.427
768	518.994
2849146	391.921
8674	463.076
13869480	389.045
12635	387.476
65523	395.741
6999	716.739
2441	1069.210
7662	583.523
13856352	394.061
7506	437.203
6897	519.238
8186	525.358
15431	543.147
58234	1103.905
21106146	440.604
15387	320.387
8574	303.955
1015	387.379
26325090	266.312
13842573	360.268
9564	401.423
221226	405.114
8912	445.228
7848	310.007
13875441	368.009
13863774	432.976
13871718	444.358
10179239	744.536
10227261	670.418
776	465.094
906	681.419
21168813	535.751
4366810	348.325
7170	916.061
12821	350.355
13619	383.561
392	281.845
8097	706.511
299166	455.359
21106013	468.853
13869414	383.210
21111817	531.565
7511	407.306
24641	406.561
21106020	458.323
17131	755.461
10756	849.714
7984	350.837
10404	538.913
13853953	513.232
12218	360.497
21105897	652.102
13862559	608.572
5593	440.342
123	348.678
11773	453.065
13846663	717.285
10451	1096.353
7852	308.797
7872	375.464
13662	369.549
12637	325.476
376	286.917
6780	646.056
6794	718.715
21106018	488.549
72551	372.215
15427	466.268
13859497	576.167
11576	670.765
6635	919.217
21111781	502.406
11080	284.955
13835630	356.143
105291	222.514
14846	406.684
13868640	490.489
21105859	470.232
11862	294.451
8910	543.160
14227	567.410
10437210	463.950
11589	599.875
64699	401.310
8098	649.662
589165	559.242
6781	547.376
12933	657.162
13853758	583.947
9893	588.699
6621	535.766
558878	449.191
8855	615.110
10980	562.205
206561	507.962
15855	789.315
13835126	553.736
5882	579.292
13864445	656.514
21170967	503.810
12478	346.322
21105870	453.369
13229	453.743
13849989	462.384
24535	636.761
18019	950.973
73390	465.246
6674	643.343
11591	536.660
67360	351.303
553578	449.191
10437335	460.576
14593	340.146
10432	464.397
7745	157.421
21159695	523.244
7891	445.589
10972	579.997
11557190	907.888
8183	591.082
12219	368.373
880	429.883
1446	558.174
2923	703.993
6775	492.552
12954	412.456
8576	378.086
21105848	622.168
68109	713.807
7882	361.430
120548	505.264
10181339	480.710
6788	851.748
13853943	465.833
11672	444.9
57726	1039.502
10892	597.442
6898	630.649
1905	384.986
21106470	611.697
6950	401.922
13860434	586.153
12972	460.072
21106148	495.540
10664	394.775
7890	441.616
71876	494.784
7176	531.516
15965	581.922
67653	352.064
13487	601.378
9088156	721.638
7871	418.455
68224	1552.508
18	588.039
4511751	467.022
10181338	538.419
10756390	1603.966
84971	358.512
388391	358.512
13871489	611.695
11629	582.550
2241	381.908
21106519	597.119
11460	492.093
7189	478.655
8521	882.625
13876103	753.440
11510	666.506
14349	367.104
7211	535.475
2937774	581.994
11584	671.719
21105998	754.617
6736	912.604
4963	508.088
6789	893.709
6737	961.986
59482	660.811
81814	724.018
14021447	1140.153
71	548.308
80863	838.107
955	390.566
7145	429.301
917	838.107
3350	561.591
10616	644.303
7172	545.069
10257	591.652
953	463.846
1151	603.956
21106571	900.882
6827	931.486
11422	627.461
21106163	886.350
10025	343.869
13835344	589.690
15853	409.126
21106140	894.884
10801109	862.807
86394	896.530
21106145	645.387
62310	717.276
13835706	548.336
7092	686.879
1448	671.940
8182	638.713
21106518	523.303
10437239	319.702
13848793	654.551
68676	863.221
16180	503.836
7600	482.436
13846959	411.585
6773	807.305
7340	686.235
13837329	945.113
21106581	631.452
16475	574.743
7146	531.194
185	557.069
6828	853.910
11488212	651.512
6646	358.512
10801842	663.138
16387	557.772
11586	684.315
62472	698.973
16388	684.075
21108576	513.826
6480	612.176
23083	618.466
10628694	505.268
7892	419.327
71437	1331.587
5644	659.521
10909	1030.020
10918	1031.704
8935	789.228
4510206	371.386
7757	523.381
13846749	606.328
2298886	673.105
6550	710.017
8341	787.997
7208	624.5
11882	499.832
4611	546.707
13835351	753.524
8374	640.591
70682	412.194
13492	662.017
13677	1087.426
6739	833.539
17347	701.786
7875	491.061
11777	638.272
7310	540.979
11465	572.291
2157	732.648
8150	741.290
7302	754.659
7202	581.006
7042	725.668
6035	595.408
11776	831.180
10908	1086.282
10850	1113.491
556589	717.560
7299	859.254
8577	425.477
21106900	733.841
17652	653.450
5915	421.201
10106	440.792
63518	726.730
17868	787.734
6706	728.871
10851	1097.137
11588	689.772
79969	763.866
6675	817.140
71193	901.959
2206	1134.303
13867714	776.008
4445317	1342.484
10849	1100.587
11595	734.093
1906	515.817
6193	2398.771
67270	870.142
16177	467.214
6033	850.724
6478	1230.163
15517	961.339
10841	1153.306
13574	504.081
8319	893.241
7964	2007.547
15789876	931.103
21105699	799.336
13622	562.155
10829	1170.449
11507	861.290
7585	512.969
6790	836.442
15495	777.270
13860	563.646
10831	1164.761
56515	890.646
20124	936.134
744	636.841
10343	883.998
218253	1153.858
454319	4086.314
76154	1163.078
33084	852.662
67414	1412.742
220998	537.389
15867	924.504
7901	477.455
14627	794.949
21106570	1286.318
10449	1351.508
10813	1176.921
199342	1182.910
15755	1225.963
15702	936.614
62484	806.654
4522053	501.781
8273	1068.260
11883	558.133
8262	1081.095
642951	955.679
15747	721.640
15524	1121.464
13837303	1121.612
305	572.488
230	612.086
14995	1288.703
10733068	2123.109
256210	756.155
33421	1516.062
67470	1200.3
33416	570.213
14994	1280.003
15756	1124.181
12938	605.095
6588	1042.249
15475	1267.310
7279	632.984
23886	1488.090
14472	843.698
15476	1205.866
42330	1274.609
2991	1041.455
12682	1274.849
4762	1200.067
361	676.037
6592	1319.592
11884	525.446
15488	1067.812
15478	1189.937
21106573	1403.411
11003	833.965
15489	1042.644
15861	1350.709
7155	875.461
64155	843.867
2627	801.8
24142	620.513
8073	1098.681
44152	1289.409
26325080	1372.178
8916	762.498
4267	851.012
33455	1393.154
15619	1309.797
96749	528.198
18336	876.276
5236	1091.654
440	544.364
2973	717.568
3173	893.053
2185	786.245
1361549	943.140
7915	535.709
30600	1386.493
1438	1084.182
15477	1298.665
10437836	540.268
8120	1002.974
26010	1462.549
7152	920.062
13846658	950.735
8470	801.541
3544	1094.811
15621	1373.003
33934	1355.532
7913	607.499
7994	494.750
2468	1295.407
6840	1357.472
12133	859.470
11632871	627.850
34863	1886.237
63968	922.190
61739	944.976
68437	1444.772
66895	849.805
26260	1392.867
33932	1409.762
33933	1329.115
5027	842.846
192748	993.637
8282	949.169
5004	459.395
34188	1809.805
13114	716.538
18280	1089.369
12024	831.737
2068	1131.123
6835	993.271
78998	642.109
72056	513.311
4626	1023.550
2169	951.088
23115	790.220
6492	991.462
4103087	865.240
9824	1528.655
15473	1291.896
34664	1763.505
9053802	607.318
37904	1873.112
13856959	977.244
12586	690.859
5368	2171.956
707	1810.268
34665	1741.226
17098	1263.428
17099	1338.826
84188	1651.884
15620	1456.552
8111	1483.374
3210	880.574
49469	1359.883
967	1551.858
158870	1577.177
2915	1623.820
83330	1518.375
157093	1483.281
4768	1061.707
34864	1768.177
14993	1777.886
8329	1223.266
970	1580.067
7917	594.031
136000	1614.281
34866	1818.125
83374	1486.228
2297538	1202.401
20848	1076.074
457145	1559.496
8067	1744.316
37918	1771.991
457140	1629.763
34865	1731.041
8241	1264.416
14620	965.425
6593	1288.299
21782117	5680.675
135983	1522.679
10540	674.853
25472	1029.123
25605	1737.279
6464	1858.431
25677	2321.985
136001	1531.960
136003	1530.868
34666	1667.205
82753	1086.834
10438331	1524.413
2121	1238.852
1278	1462.596
4457	747.190
62265	1056.074
11974	1325.288
31991	1143.196
481441	1178.302
34867	1652.927
84235	1437.190
13087	1269.159
2079	1498.671
2424	1381.010
5256	1346.365
7315	849.062
15474	1235.849
37915	1633.1
40191	2194.720
29348	1376.473
26011	1618.488
28287	1459.760
62632	700.483
30932	780.410
22172	1072.045
5899	1234.214
2297441	1118.346
37905	1798.696
3987	953.668
33617	1087.844
2283071	1642.538
34830	1253.134
16568	1617.859
108106	2327.389
69223	1541.071
35581	2181.908
23912	1294.447
13302	1128.115
4932499	1687.015
3006	1077.315
56793	2265.438
13090	1419.368
34868	1706.629
10243	1641.678
13850879	1143.510
56791	2153.579
14674	1207.376
15729	1810.579
8060	1118.293
9040	1522.238
34870	1671.747
30881	1084.782
17587	862.017
34869	1671.732
457144	1590.736
5807	1298.877
9026	864.507
3008	1069.282
4575	1752.256
135925	1664.803
4759	1073.755
82777	2069.660
34871	1563.699
