Compound Id	AutocorrelationPolarizability [ATSp2]
937	0.0
127983	3.160
217	0.0
692	5.773
763	3.642
748	5.853
23208	4.128
291	0.0
11148	4.892
391	0.0
274	9.539
923	9.420
6105	9.210
21106179	12.978
6086	9.850
864	8.309
8960	11.216
22814	0.0
6153	16.222
518	N/A
278	16.285
1087	37.212
16641	24.012
6085	15.218
6089	13.017
4514529	0.0
22408	0.0
9642	43.129
13571291	62.994
693	23.761
6087	18.215
11153	30.714
6084	14.973
6102	25.988
7568	71.691
172	26.506
6132	42.292
9243	24.157
2275	106.721
12066	114.131
10205670	57.579
10441	63.168
4937830	54.135
6111	67.403
6135	34.975
6083	29.452
6128	32.546
6123	92.447
9484	40.165
6095	35.201
7956	29.341
682	32.242
1019	119.324
9990	71.020
4514586	0.0
12577	48.2
9286	48.587
11727	43.469
16425	126.470
7577	40.965
171	47.106
1143	56.514
6098	56.602
9256	55.471
9994	87.614
7954	47.441
6101	42.476
654	41.354
6108	111.696
6104	64.790
8900	111.144
6191	62.003
21106169	59.634
21112738	85.924
7559	64.281
4481813	56.717
28994	56.292
173	61.023
6088	59.588
13835235	52.428
6130	88.367
6097	55.131
6314	123.645
11228	117.914
13836713	134.331
6151	110.674
6094	46.125
70850	144.629
11811	129.770
6145	167.674
6310	147.662
773	149.970
7738	137.431
5978	198.560
12197	76.423
7566	60.730
6093	89.610
512	62.006
13872989	71.904
175	65.702
2018165	81.077
6148	91.906
12640	183.599
8902	195.949
13835336	65.129
6103	77.238
1039	81.077
7030	133.785
6333	92.744
71390	121.823
6338	71.808
6092	78.199
2005981	140.304
21106015	81.201
19475	146.467
23730	141.739
7736	166.968
12442	94.759
16841	110.041
7557	94.182
7558	73.883
10772140	103.280
11154	150.577
13835977	86.429
1004	69.475
3644	75.118
13835550	79.021
13835316	136.304
553742	118.813
558928	118.813
1577	165.737
7790	131.803
2916	118.447
8899	253.051
6190	126.351
7734	77.086
1005	89.244
6335	82.779
5894	89.8
13836674	104.654
659	139.293
29008	181.299
11749	173.143
11910	202.829
7012	177.770
11065	175.201
6164	214.414
11239	198.443
5977	151.203
7330	204.541
62827	105.805
7546	138.872
7737	150.494
11756	84.009
4514549	0.0
3102535	271.487
363458	278.375
7556	91.333
56442	91.149
4449912	91.149
7957	101.472
7564	83.722
1114	89.752
7777	182.328
7606	204.596
8904	195.759
8903	195.818
6149	189.327
6125	132.394
29040	149.689
454215	160.098
7029	175.491
7739	274.869
9391	109.994
7733	110.118
394562	110.656
6322	117.577
60524	111.026
6330	107.616
6334	105.599
5993	109.655
6100	135.696
13837190	79.215
13835224	101.939
7728	86.694
13839553	94.555
558020	213.367
62808	214.474
124968	212.405
14829	164.598
21111820	372.698
10437	101.674
6121	114.727
558875	188.645
8544	198.044
7553	135.904
11526	98.860
592	124.414
10771217	200.023
10498	119.406
6119	194.133
81815	202.729
14694	164.462
30713	165.128
7555	88.529
6120	98.2
24043	207.170
19476	201.406
6177	246.392
8012	217.010
12957	196.469
13875283	341.863
1020	214.456
10340	205.671
12225	182.787
1348	223.314
844	137.8
29015	169.142
10018	169.449
7717	105.191
6311	116.943
7732	106.740
6321	113.569
13871721	119.312
62597	118.987
6313	119.199
256	107.011
9016	184.514
9254	188.181
14441700	145.668
61213	140.912
7727	101.745
13836021	107.959
8733	110.287
13863629	229.107
9363	233.019
61111	234.095
7560	130.905
11729	142.801
10606755	147.326
38403	123.247
7636	200.882
374462	253.448
3951	160.023
7616	129.773
552744	143.112
8896	191.642
7615	117.250
387	130.223
5439	120.010
13837650	115.755
13853215	210.602
9392	214.792
7552	132.470
6118	152.535
733	130.602
454209	123.543
66565	251.3
7817	207.202
7081	244.189
11809	130.254
13837280	224.310
236	233.878
11731	210.488
8141	222.601
29036	242.417
13837537	200.847
2340753	205.4
10325184	214.799
107412	165.637
11099	145.563
6309	163.763
558883	145.959
56020	145.959
11806	120.883
1095	282.063
8351654	252.174
3168	103.410
10709	106.755
6312	128.617
258	115.504
6320	124.838
6146	141.683
415	126.857
4444456	174.898
12229	261.733
9614	254.527
5730	288.931
7551	184.801
2282428	237.894
9251	242.541
3441	235.412
9461	139.989
8329688	179.156
61346	182.865
9095782	156.371
21171407	210.583
7782	122.001
11755	134.413
10653	131.768
8525	125.865
6341	154.091
259	138.165
23621376	128.903
7021	150.313
11244	165.807
1141	272.136
21111806	274.878
21108550	275.033
9325	274.569
7961	307.543
10251740	267.854
66021	302.861
10437074	304.995
66996	300.871
6042	258.241
6326	218.266
10325078	275.439
11117	272.842
2062437	208.627
13867413	148.961
10675065	154.911
7630	149.380
7026	236.374
8554	211.418
7028	222.005
13835459	234.932
29004	345.819
13634	379.398
6106	272.010
10765	158.549
7713	141.680
4483639	142.063
4483638	142.063
10113	158.788
7469	277.972
7472	253.844
6649	287.952
21943	252.785
84036	260.319
68152	322.601
25889	285.739
7018	173.730
7716	132.316
23255	146.768
11230	143.057
7730	128.948
13838404	296.056
971	280.436
10008	286.980
7688	274.212
1664	289.568
71089	272.477
8543	170.222
6316	194.499
62826	206.638
10197150	198.161
10488	239.681
21168808	383.283
13647	388.310
221117	456.364
7220	404.010
10364	369.967
7672	446.321
59674	144.0
11752	155.890
13816	159.465
29107	173.014
61707	177.703
10464	159.310
65936	296.408
2038738	294.137
31029	206.250
6122	243.153
13836589	124.489
13836591	128.879
10948	155.534
13835209	143.447
13861343	311.443
4489	348.132
11351244	460.017
577	299.678
9360	301.635
9350	301.322
9326	302.267
9253	280.462
83734	289.367
71312	297.944
2293678	292.668
23055	234.741
10054	201.746
7714	153.647
6315	175.157
13299573	234.604
7689	325.628
11784	327.730
11785	328.751
9411	160.096
3631	202.010
7788	265.218
21105795	400.810
7791	246.216
13866746	333.249
70714	364.732
70715	359.446
7514	283.050
11036	297.879
472932	305.888
105291	313.651
5976	335.920
6188	318.947
99596	251.363
7712	137.844
6308	153.833
9646	175.942
2056044	191.220
61149	200.248
5889	311.012
21106520	297.859
13874733	298.767
13839199	296.012
1078	190.820
13836549	351.975
1015	464.854
7770	155.624
11525	187.377
12626	171.101
7772	157.791
10777	185.136
7016	168.844
7607	166.039
73583	291.387
7241	318.813
7225	322.395
78	321.211
60329	145.413
1609	150.945
13854944	173.223
13835861	205.269
24099	161.110
12816	326.377
9943	325.176
10772050	348.811
13837760	331.360
4878	329.334
17443	294.105
120489	291.809
9349	332.325
11600	308.140
764	328.347
21106535	221.680
7721	187.268
9233	212.537
18607	204.418
13837281	360.666
66567	225.868
7676	351.276
156255	352.990
9547	419.415
6406	211.501
13862665	179.193
29001	195.420
7024	274.795
7787	257.710
15077490	341.426
63054	364.367
11799	168.112
7466	169.723
10053	257.204
6307	211.974
7711	189.215
18971812	251.485
10781	425.877
11783	389.227
7685	386.544
13630	390.514
63889	381.094
9228	373.198
1108	320.438
10534	361.311
7679	292.196
12643	316.091
7684	282.099
12499	383.437
24590970	309.159
6950	476.147
56144	293.111
11110	200.222
12209	172.849
10124	249.354
24041	310.010
25886	334.064
19477	319.063
17784	399.938
3973	267.485
7224	344.408
11833	156.562
29000	184.828
8398	188.295
6040	166.871
14672	198.325
21011	178.358
10947	182.011
6165	205.865
13837702	179.313
235	348.502
55091	383.659
66809	316.312
62489	319.936
11080	361.918
5596	365.559
392	360.167
13257	349.550
12231	393.526
2606	365.384
8528	366.833
8878	432.484
19231	308.588
7681	410.242
11911	374.143
6342	350.808
18219	387.646
7248	505.922
11661	500.378
7710	246.932
768	537.059
11125	172.545
10492	189.834
7463	178.928
7706	174.898
11680	184.701
7701	191.150
10001	210.681
7627	191.062
10571	204.356
5708	201.254
19953955	180.314
13848341	289.179
76394	373.583
13835604	185.953
7138	359.244
7443	364.606
913	369.492
5709	371.099
7673	414.533
13875432	404.921
13875219	402.122
13837686	410.837
7013	289.184
92731	339.061
13874867	214.026
71787	236.484
7745	236.962
7678	306.967
13255	302.676
59447	321.556
48024	320.3
8868	496.964
5593	521.440
13835932	231.793
28981	368.495
4510484	379.843
7534	378.941
215929	340.937
13662	388.307
123207	445.538
7090	369.246
12201	216.028
11109	195.673
12446	217.286
7769	185.226
63631	220.826
24263	769.827
6364	859.628
7221	380.898
7240	376.337
6186	451.386
6187	447.195
7238	341.734
13835772	375.985
13839082	369.929
21105871	371.891
13860335	360.657
24533	344.815
28992	358.491
20843	368.484
21106032	226.554
6156	123.449
789	286.586
13836520	257.795
10628694	541.148
185	564.143
21106036	404.236
4444608	218.299
13837797	209.232
7794	394.864
11795	213.940
120621	229.861
20119	209.616
26765	215.358
192642	237.716
12821	396.436
12478	394.208
7389	375.488
10497	272.686
109838	168.759
16778	177.394
7705	193.047
13835293	255.023
13839441	196.424
13863618	405.679
28682	381.956
238	393.892
123	398.475
63908	370.690
9581	363.812
13875196	363.003
2018460	360.071
10512	208.599
55090	278.041
456015	452.159
13869451	440.151
13854248	448.897
13869339	436.047
1151	574.454
9574	416.776
11086	359.204
11857	343.568
7677	338.858
11788	332.758
62589	335.991
7686	334.491
776	552.688
7478	188.133
15802	404.118
17976	462.927
9579	415.510
10664	411.294
955	409.012
13837787	406.442
1266393	335.671
13875441	471.988
13842573	467.698
6974	481.239
10437239	384.017
7767	191.183
7604	210.948
7010	217.167
6163	246.780
6340	234.342
7234	382.603
13854136	412.382
13835151	402.902
13860692	405.954
21105905	371.391
21106560	372.862
7242	368.396
11077	390.504
11042	385.319
10940	395.546
10937	398.457
13842613	386.705
21132380	389.538
7223	387.458
11582	482.295
6774	524.560
9218	506.512
7236	365.611
7480	358.955
499714	394.059
13857694	486.570
13866817	480.791
13837988	499.027
12228	N/A
83866	360.698
83850	360.698
6621	553.876
7671	400.567
7074	396.457
62467	565.618
30516	381.887
10487	380.736
11846	209.556
7098	421.340
61191	419.004
73412	265.939
6176	285.146
10791	248.707
10788	251.975
7621	242.599
11025	225.573
11095	221.124
5949	211.933
63156	226.055
10101	117.862
68156	215.255
9377	205.221
5026296	963.324
13648	406.407
2241	425.692
13644	411.942
13856009	410.116
11087	557.989
8657	393.156
8665	391.149
9564	425.867
447	397.313
2039535	349.521
10384035	346.568
4962	418.520
10437135	352.627
7776	244.829
7180	663.386
7182	665.388
10669	661.355
8531	579.952
8335	597.305
10253	619.983
10979	664.807
7181	665.362
13875160	446.387
13875281	460.441
13875230	450.872
13840690	422.194
4449	433.572
744	605.337
68832	256.770
7674	348.673
8908	334.866
191367	222.222
11695	222.767
7766	247.007
61487	343.409
331	453.542
7142	447.502
132	444.608
7145	446.286
13846959	433.122
13853943	454.358
222538	405.015
65523	401.052
2849146	397.250
10437210	457.023
21108548	582.442
21106019	476.026
21106014	493.498
16159	407.211
7786	382.469
7219	395.764
7521	412.980
7641	416.343
6967	423.440
9874	579.073
13054	535.629
15443	377.472
10939	390.185
6179	541.498
21106470	583.744
8855	589.004
11861	406.427
11845	227.675
13839308	417.311
10536	476.982
7823	200.478
7812	221.341
11793	242.199
7622	256.063
7459	247.653
11024	250.374
11794	234.029
11678	239.808
10787	266.403
7626	235.709
11996	254.068
55188	270.444
11732	282.190
10790	263.960
11056	267.766
11180	295.910
13866593	234.417
7703	249.335
21106020	486.513
13853953	505.198
21106013	492.518
256210	683.344
7518	550.205
13876539	420.854
7132	435.373
21106524	454.935
21168826	446.243
13865424	442.114
71433	186.296
455090	420.581
503239	428.817
13860775	434.581
13869480	427.570
13869414	424.213
11849	202.842
11083	547.656
6988	557.252
8140	550.803
65	548.004
10857	566.498
6633	560.322
21111822	509.398
7239	513.6
6550	656.841
26325086	363.827
71430	340.041
21106173	345.819
7765	307.081
13859497	568.399
6775	476.862
11672	462.455
11773	467.108
12012	226.475
7761	246.857
8552	246.505
62249	305.289
7515	230.291
7475	234.173
29012	227.786
11706	239.963
7064	278.149
11992	248.619
10446	283.115
7065	256.010
11207996	269.524
7747	247.276
11193	325.286
19956441	234.757
11107	258.131
11694	260.036
11930	307.221
9903	580.618
4963	487.490
953	478.731
21106146	456.919
21106144	465.930
13863774	452.610
73479	468.335
58563	477.099
299166	465.290
13875320	534.780
13875258	514.067
13875392	520.612
21112023	457.251
13851576	476.653
11769	623.232
10432	615.804
10328	639.823
63310	516.285
59573	153.929
7161	713.043
6720	687.884
13850142	725.820
390927	725.820
206493	676.088
11667	467.838
21106018	516.412
12823	488.822
55205	265.369
69982	574.592
10710415	273.990
13865426	264.447
6780	616.525
8098	621.799
6658	843.059
9970	388.868
7528	414.156
7530	411.602
11489	585.887
526	481.827
6339	643.961
7984	342.820
21111817	570.564
63906	544.566
3350	508.620
1446	506.742
18	511.852
71	502.741
7146	503.570
11121	251.684
555074	252.764
7811	240.595
8562	235.230
7624	278.694
8158	272.758
6079	523.777
434	530.938
8071	546.111
21105959	445.860
13865438	434.312
21106135	438.047
7391	399.771
28982	446.806
13839110	472.865
13839151	484.302
13865680	456.251
11604	449.853
13839128	473.676
13839174	481.422
13839105	477.987
13839123	475.014
11021	454.715
20570	449.852
7131	451.377
5830	432.028
24972	462.144
10992	459.111
553171	298.744
13860817	592.402
11778	587.694
13860720	596.060
136966	523.365
13848793	589.591
30572	327.334
7866	418.575
19957731	405.869
10257	508.075
7211	492.160
7172	497.329
13875356	634.025
13875212	659.083
13868640	622.632
10864	583.401
21181	272.352
12445	332.255
122446	345.094
62534	469.624
62408	483.777
11830	336.162
13835836	234.921
13835376	214.227
127750	218.462
13836399	229.998
13884973	315.332
13839416	251.782
21109330	362.614
18707	625.176
6883	455.022
7189	486.966
28969	429.427
61765	474.814
21111781	477.309
5915	474.279
68568	511.758
64699	508.763
7140	494.354
8070	505.358
7190	489.118
10181341	461.966
221226	429.045
10526	265.161
120464	363.047
7150	628.281
12259	786.534
13860	619.983
11563	767.859
7003	323.531
7662	640.478
13862559	647.274
13864445	666.586
13865630	392.130
553642	412.366
8876	657.965
906	650.175
13638	389.709
6480	617.321
11866	265.483
13839109	238.723
11591	518.684
9454	483.868
21106148	473.804
6781	487.738
206561	484.859
13803	167.725
8560	246.799
11094	268.731
11023	278.652
11055	312.585
10786	306.267
7619	292.742
10755	326.110
11551	288.5
221082	473.639
7129	509.269
8950	470.880
15965	569.898
13868660	705.910
7092	698.885
924	480.070
13860641	495.931
21106525	481.077
10991	485.852
13869434	513.632
6630	523.835
13840647	524.479
13860491	514.593
13869462	513.930
63903	440.199
62530	434.7
13856352	456.216
551	967.121
14627	688.971
191	302.699
558917	539.733
6301	574.528
10616	548.914
5882	528.977
8183	535.431
6646	346.964
84971	346.964
388391	346.964
10980	593.587
10972	604.210
6674	626.989
361	563.444
13063	849.178
10797	337.757
28986	284.691
7760	277.688
7838	267.983
230	540.220
13842001	307.365
18801	271.298
21108576	521.772
21106518	527.352
62466	528.259
62485	522.292
11460	496.961
10254	540.834
21169510	479.759
880	482.933
7397	490.903
8674	459.496
62517	452.564
11651	449.989
10437215	405.506
60121	457.913
21105859	476.004
13848467	430.085
120548	510.299
2923	652.109
28947	628.526
21105878	455.539
11625	700.136
7815	302.902
7827	347.058
11761	418.172
14998	186.706
21168831	487.394
15482	463.276
10975	555.068
10870	563.540
10837	564.9
9120	554.690
1448	557.540
22191	316.868
15438	414.597
14751	426.109
8909	403.039
10265264	445.690
10179173	445.690
21800	456.364
15765	456.364
11699	277.947
7810	305.217
12069	278.217
13839575	236.396
1253	525.077
7176	506.557
10181338	510.362
21105848	534.674
10892	527.746
124	513.642
87265	698.554
13848808	517.328
13860434	527.120
11629	525.0
73390	457.154
10437335	452.933
38364	753.322
27488	758.493
14227	576.091
13835126	567.732
17347	713.461
7385	463.776
7128	497.826
11660	491.507
11409	507.899
7659	521.890
6977	525.673
10236	536.577
11366	732.545
21106172	719.284
7001	719.451
13029	729.501
13030	722.752
11422351	980.786
6665	574.198
8341	708.771
6739	718.602
7208	566.354
992	591.008
8182	574.316
11038	784.299
16791	277.497
11864	284.111
12161	180.584
12061	484.101
7837	277.572
18717	375.430
15954	330.412
11029	300.001
10511	290.915
11819	314.082
99440	362.695
11543	326.455
11739	328.162
11194	377.472
11216	344.816
11210	359.260
7202	559.643
21168813	538.517
6881	510.327
8186	532.346
21105870	509.003
21106366	499.773
15517	783.137
25890	502.390
13811	626.405
7809	366.298
7042	598.559
6706	671.088
68179	291.163
5979	771.783
55123	282.373
7803	303.213
18688	361.856
7482	286.834
10420	290.721
11843	283.022
7536	296.585
55130	306.380
10433	305.204
7657	313.637
22453	325.760
11045	284.479
29016	304.649
14169248	337.657
11632	321.807
11265	379.580
65763	642.472
392447	538.429
8097	671.708
11585	541.383
78467	542.948
1906	534.724
11488212	587.154
14556	488.861
7383	536.628
6642	935.393
589165	631.523
11961	768.861
21111772	766.047
11954	785.961
21106586	362.826
6790	748.883
8319	764.823
21106581	572.472
21106145	580.175
6023	592.427
11588	750.107
6675	806.801
8883	849.596
68503	235.006
10614293	403.958
7833	308.798
4516601	310.050
4516599	311.747
4512361	310.050
4512642	311.747
7835	297.339
15093	594.556
11286	832.460
5142	794.380
96749	458.308
61538	600.724
10246	596.353
12244	591.857
10248	590.284
9911	589.653
16119	596.320
13871718	497.846
25552	532.360
13658	572.315
12060	515.637
11647	459.542
61739	778.596
8282	779.807
6492	788.509
21106571	834.284
21106163	827.548
21106540	847.936
6737	826.119
6789	801.967
61001	590.725
4446445	332.550
71628	357.157
59577	381.031
11875	308.496
12010	397.648
455353	285.081
205483	584.588
7278	518.893
11576	606.485
6897	512.704
6035	562.760
13835344	553.620
10181339	526.035
11589	569.053
30595	571.511
7175	551.961
7157	558.262
8807	1027.069
11865	322.587
20124	842.907
17619	N/A
2068	847.905
5236	844.173
4103087	663.492
6736	778.566
6788	760.910
83962	1173.476
7044	694.714
16359	698.239
10986	610.383
191058	619.827
13835630	378.283
2937774	542.702
11708	957.764
86394	676.943
10411	615.903
349	303.682
11035	338.873
11104	351.142
10795	404.848
305	495.839
10445	403.958
71193	811.547
67270	817.786
6033	806.036
21159695	550.611
13853758	586.166
18724	605.691
15427	520.413
10996	775.527
6296	642.937
11776	894.172
17868	728.469
13867714	718.665
21105699	737.359
376	360.089
11586	592.020
62472	599.777
11584	658.483
29026	322.528
57726	938.911
7802	335.079
441	325.099
9633	317.947
11465	562.273
10243171	580.327
11332993	586.772
11610	551.830
11422	593.718
194092	614.1
7199	608.656
26516	647.548
27296	507.923
72556	488.037
19709	542.253
391428	769.827
14198	813.517
6402	814.910
14680	361.186
6478	1007.589
8262	834.574
8273	828.740
7888	534.952
6735	918.760
6588	824.985
7420	549.415
10343	676.448
19766	928.670
13047	918.604
11294	899.538
75951	376.191
72793	382.103
7076	374.144
10422	357.312
11863	363.580
13846749	564.674
21108577	573.189
7406	580.380
21106008	601.348
65701	797.791
21105897	576.449
11596	570.805
21106900	621.254
9965	578.226
10410	557.333
7419	527.520
8356	581.376
6999	645.040
7088	631.368
7448	571.734
7183	596.973
7155	690.199
11871	536.881
13835351	649.049
6773	663.820
6852	782.511
2157	625.395
6604	945.471
17880	341.441
99681	924.315
67460	547.216
18920	348.482
11841	349.231
8569	307.667
455420	322.672
7533	408.728
7434	381.131
932	334.787
123993	417.419
62230	430.531
9893	577.928
10586285	854.985
6688	719.771
109705	679.588
7151	902.676
9724	796.102
10265270	709.690
10179239	709.690
6586	872.092
13872122	595.573
11862	425.078
440	470.230
7694	341.738
11716	340.430
29005	348.050
8568	339.638
7538	353.990
370	360.682
7073	387.558
26325090	346.795
6898	613.429
556589	641.331
13854242	599.886
7310	556.014
11595	657.199
6593	1051.552
2441	940.188
56117	252.098
68676	759.611
6635	898.046
62265	763.837
20939	660.849
6828	789.163
6577	954.659
13104	1026.946
21106570	1049.574
18177	658.541
15755	997.404
67470	985.569
15756	960.082
15524	958.351
14995	1016.091
14994	1014.342
15475	1010.964
15478	985.711
15476	989.268
15477	1022.258
62484	817.568
29025	366.510
7851	354.840
7856	348.087
454638	1736.186
1406720	1743.119
21105998	668.178
61411	726.018
69177	722.921
10244	721.428
15855	713.043
24535	614.104
14678	579.814
13846663	685.753
69340	560.394
63863	198.907
63968	820.227
70660	449.395
62628	365.972
123860	315.344
4611	587.644
13885245	574.154
6745	670.857
13876103	658.565
7279	629.702
6592	1077.087
3756	593.273
13850082	766.137
1266019	670.933
7850	380.472
541032	1117.109
58234	963.324
218253	974.141
8912	444.949
2424	978.594
66656	N/A
