Compound Id	AutocorrelationPolarizability [ATSp4]
502855	762.361
6191	52.273
26325183	1873.341
5709	328.689
6153	0.0
16425	0.0
8521	882.625
23150	197.475
8520	651.228
66656	N/A
26824	672.378
18019	950.973
26325084	2300.054
6190	99.258
11919	445.049
10696	822.785
26325083	2068.089
10451	1096.353
23101	421.406
122090	574.281
26325082	1836.123
26325081	1604.155
10449	1351.508
26325080	1372.178
66655	311.052
14021447	1140.153
67991	239.332
109705	934.965
17619	N/A
692	0.0
291	0.0
6084	0.0
6094	0.0
7555	23.161
6120	0.0
7712	60.335
6308	55.796
9646	0.0
10781	356.430
15802	331.904
17976	318.310
7767	106.417
7604	109.057
7010	131.625
6163	99.089
6340	132.515
8560	157.830
11094	164.986
11023	195.955
11055	170.513
10786	231.046
7619	175.942
10755	225.024
11551	228.970
349	212.329
11035	258.255
11104	234.342
10795	355.837
10445	257.637
7849	268.576
17558	279.977
13439	361.646
13402	564.547
14840	325.799
13448	414.942
13619	383.561
7890	441.616
11882	499.832
11883	558.133
10540	674.853
7929	908.425
11897	966.824
11899	1025.224
12017	1083.624
12072	1142.024
11900	1200.424
11901	1258.824
11146	1317.224
11902	1375.624
10542	1609.225
11906	1842.825
8878	97.692
11585	567.008
11557190	907.888
10452	453.025
108106	2327.389
127983	0.0
78828	674.481
68328	435.760
67414	1412.742
13837650	26.064
13853215	165.360
9392	158.813
10765	57.009
7674	231.306
14998	108.126
10614293	257.637
6156	0.0
12201	110.617
11109	108.513
24142	620.513
13622	562.155
16180	503.836
7891	445.589
12446	112.077
29025	272.214
12635	387.476
11121	160.683
7713	61.362
12809	329.613
7833	215.669
7556	23.722
7954	0.0
555074	162.150
7957	0.0
4516601	217.439
56442	24.814
4483639	62.898
4516599	217.243
4512361	217.439
4483638	62.898
4449912	24.814
4512642	217.243
18410	374.111
22408	0.0
66675	234.354
10113	59.614
9484	0.0
6085	0.0
7024	73.628
15438	242.849
8896	0.0
14751	344.590
221117	391.432
7787	128.855
8908	334.866
8909	403.039
8910	543.160
71433	75.455
22814	0.0
9095782	132.684
6151	0.0
6188	244.034
11099	62.398
73583	211.481
7340	686.235
8158	220.273
11110	110.627
9642	0.0
11996	141.605
10756390	1603.966
62827	87.267
7626	147.033
10265264	353.397
56117	228.494
11230	53.256
63631	126.922
11086	239.844
11841	243.199
6402	808.857
1406720	2773.421
1114	0.0
14692	333.451
10179173	353.397
21800	391.432
8544	0.0
7788	132.619
4927801	3076.225
10325078	198.035
55188	188.981
68224	1552.508
24263	688.387
6364	782.206
11749	86.386
14672	79.263
11228	43.816
11857	343.584
391428	688.387
10733068	2123.109
454638	2736.065
9990	20.745
6309	59.185
7557	24.290
558883	63.945
56020	63.945
10124	142.003
6111	0.0
10265270	744.536
14198	804.853
7180	659.413
9411	142.994
6149	0.0
15765	391.432
553642	412.375
15413	361.324
7182	665.503
10669	656.154
8569	225.822
12220	331.826
7823	128.885
11849	130.671
10441	17.790
3168	48.354
11833	86.608
455420	240.130
10709	47.114
10179239	744.536
11761	249.059
6108	0.0
69914	909.431
59573	112.385
11671339	927.734
7956	0.0
55090	106.855
10053	0.0
28993	418.220
10054	0.0
9461	92.413
16791	195.160
11117	136.431
205483	617.095
10979	668.792
61346	113.854
6186	335.277
69371	342.051
69569	479.857
7181	665.529
99596	161.806
11351244	104.651
16841	70.505
61266	1754.633
6187	341.825
2656	1003.680
6827	931.486
20939	659.888
7817	133.345
11788	222.038
13835316	0.0
6270	506.839
454209	55.563
9633	233.0
9377	126.386
9243	0.0
11148	0.0
923	0.0
6121	0.0
6315	60.173
6118	0.0
8577	425.477
14349	367.104
7852	308.797
14680	250.661
7776	136.222
7330	0.0
6122	0.0
7732	49.278
11729	37.317
6307	75.611
13255	148.761
10512	115.135
13837797	134.195
6098	0.0
10536	355.480
7827	216.121
9233	91.395
18607	86.846
5730	0.0
10526	168.529
120464	241.471
24590970	197.576
7733	50.211
7850	281.212
11865	224.245
7714	66.002
10437	24.590
6097	0.0
12219	368.373
7848	310.007
61487	126.023
11863	251.770
7810	193.884
7766	136.889
7711	82.031
7552	32.121
6092	0.0
12010	247.337
11830	183.152
10497	116.716
31029	49.001
6100	0.0
12228	N/A
6042	0.0
13836713	33.056
13803	166.037
7815	192.946
7560	32.416
6103	0.0
6635	919.217
6087	0.0
7721	81.773
6083	0.0
1039	0.0
6088	0.0
13837281	182.736
56232	442.494
5979	581.666
13837190	35.895
7074	338.005
7170	916.061
10534	361.330
10410	497.458
68503	273.341
14694	65.755
7090	347.405
7028	62.292
10487	247.867
13492	662.017
15747	721.640
8356	587.029
18971812	203.812
14688	676.410
71876	494.784
7128	456.687
7183	596.159
7088	620.709
15461	813.926
13299573	142.561
7073	329.361
2340753	86.186
8554	105.248
10340	58.694
13487	601.378
7385	401.948
8531	588.496
7448	574.773
764	254.884
10325184	81.892
6406	157.590
12066	0.0
7738	0.0
10404	538.913
7419	473.220
7219	321.839
11660	449.238
6999	716.739
18688	311.726
7737	0.0
1108	213.794
236	116.939
7521	330.009
7641	335.475
7659	483.465
11871	367.316
55130	245.474
10433	235.808
11992	187.262
10253	665.197
60886	1411.518
83962	1474.225
12161	218.019
7671	338.469
10446	174.612
62249	242.150
11526	64.999
7672	290.384
7786	203.122
8335	650.205
7657	246.207
22453	304.861
7065	209.602
13875283	265.188
7553	32.761
11409	501.319
3631	183.424
13835836	189.923
55084	341.885
7694	284.198
7482	232.239
11716	280.089
11045	226.940
7515	176.809
13836549	464.526
13836674	25.169
6967	366.936
6977	510.820
21168808	100.751
960	742.054
61213	59.497
7472	194.653
11207996	196.927
29016	215.848
7747	163.006
7627	115.813
10571	152.357
7076	325.410
7003	275.795
9614	163.215
7739	0.0
8883	849.596
7757	523.381
7511	407.306
7509	349.709
29005	292.670
10420	236.512
7478	148.715
7475	181.669
7463	129.462
21111806	208.348
21111820	98.019
21171407	49.761
11910	66.270
13850082	821.816
7872	375.464
7875	491.061
7913	607.499
7670	371.053
8568	262.499
14846	406.684
7800	349.050
11843	208.339
29012	157.103
10797	292.910
7538	292.009
7536	235.980
11755	63.470
7706	110.370
7761	159.191
10492	107.714
11680	130.010
11706	181.637
10653	83.363
68179	213.340
11727	11.241
21108550	208.666
9724	788.997
11731	55.296
8950	407.842
14866	922.827
6720	766.226
7559	14.938
10236	552.470
7012	100.034
11065	80.717
28981	319.189
99681	1111.983
8525	68.936
6176	185.109
7081	184.588
6313	36.145
9903	488.232
55123	206.780
12012	154.416
7534	324.144
10791	186.721
11125	106.345
7782	65.059
6316	63.406
9325	223.064
123860	242.937
28986	218.175
6335	32.798
7616	70.212
7129	466.954
10788	189.358
7621	141.708
8329688	78.832
10777	103.847
441	238.899
7838	183.806
5949	131.305
29029	295.468
7772	83.262
256	42.643
512	14.450
21169510	385.799
7676	229.687
13875281	390.814
7220	327.250
7248	465.318
11661	456.223
12674	892.249
8097	706.511
12972	460.072
9976	339.317
7514	214.784
215929	271.990
11025	158.451
7734	32.650
7016	104.505
1095	0.0
2038738	230.849
12259	1006.376
13836589	69.533
172	0.0
13836520	160.444
13875230	359.293
18219	161.505
10801109	862.807
29004	331.052
7871	418.455
21153	476.616
7802	245.974
12218	360.497
12632	302.905
7760	190.214
11095	136.507
21106173	331.052
7607	86.334
13866746	395.3
7577	10.474
7506	437.203
9228	284.328
7239	417.477
11647	407.623
7530	328.839
1266019	615.574
109838	109.440
6321	42.935
13874867	156.848
6314	37.885
4510484	330.406
62530	377.7
13842613	314.622
7391	346.092
7242	301.026
26325086	331.914
13862665	113.071
15443	289.949
124968	137.212
9581	327.175
66809	255.812
221082	410.025
13875320	452.333
6642	1327.559
13835376	152.247
127750	152.641
13857694	384.019
7673	270.501
7662	583.523
363458	186.723
7684	186.320
61111	149.880
13875196	325.417
11042	308.617
24972	452.627
28992	288.070
13875160	352.261
13875258	404.951
9994	0.0
29015	84.607
4446445	244.735
4444608	135.187
394562	44.899
13839199	198.791
18724	593.525
7238	275.011
21105959	436.832
13866817	375.508
13875392	415.082
13839575	176.220
6322	44.042
558020	137.269
21132380	314.478
13677	1087.426
65750	516.984
63903	381.466
10940	343.911
13865438	393.422
13868640	490.489
29001	112.868
21106135	399.884
13837988	415.420
10400	852.434
8067	1744.316
13839109	177.748
21105905	301.836
11077	313.214
906	681.419
13865426	210.774
10710415	240.380
21106560	303.017
20843	321.766
15965	581.922
70682	412.194
13658	641.380
11862	294.451
7710	108.673
7809	234.672
7765	173.331
6794	718.715
26516	565.659
17131	755.461
21106520	198.001
924	441.315
13862559	608.572
6788	851.748
13861343	163.477
73412	147.518
8904	97.892
13874733	198.491
24535	636.761
25552	582.777
10437215	362.506
11087	358.190
10909	1030.020
10918	1031.704
15489	1042.644
2441	1069.210
10939	327.538
11784	213.228
8868	421.018
7518	430.520
21106019	414.021
24533	281.784
1020	107.140
2039535	304.027
8374	640.591
21106586	367.445
11756	44.838
71089	184.405
7688	183.698
8902	97.703
10937	344.372
6897	519.238
17443	238.394
6883	446.038
11785	213.632
7240	306.276
503239	393.472
21106571	900.882
10908	1086.282
3463	5204.196
16388	684.075
6828	853.910
7161	789.315
8141	50.404
7679	188.063
4444456	74.689
66996	199.270
13840690	342.472
11667	417.484
13864445	656.514
21108548	429.493
21106163	886.350
14256731	589.423
6311	36.947
30595	639.717
13865424	389.917
13229	453.743
7175	578.614
7157	589.932
917	838.107
13875356	505.553
12044	1099.876
12682	1274.849
71628	321.532
9363	149.906
6296	624.491
70715	237.590
62632	700.483
78998	642.109
11884	525.446
16177	467.214
15853	409.126
67360	351.303
11866	182.548
15846	293.960
29026	237.484
11846	130.304
7770	82.658
7717	42.596
62808	137.138
21106366	444.749
7420	491.916
21168831	424.046
455090	387.989
71437	1331.587
13063	1001.167
558878	449.191
25886	293.166
71430	261.118
559096	2547.960
13868660	546.802
707	1810.268
387	67.820
10018	84.264
61001	684.540
20570	414.231
21106540	942.711
15855	789.315
7790	65.901
8903	97.821
62489	257.998
8899	0.0
13634	307.064
13630	252.566
553578	449.191
66565	191.576
10437135	305.993
66021	198.410
7221	308.230
7383	470.027
6339	315.862
6736	912.604
10851	1097.137
10850	1113.491
23977588	5719.567
24043	157.843
12069	201.735
191367	149.189
11799	100.809
7615	59.046
11265	371.063
67653	352.064
21106032	124.446
1348	61.321
66896	1085.716
62534	435.437
62408	483.247
7389	312.845
38364	742.264
12045	1025.714
2003	5480.3
17784	370.809
12637	325.476
21106524	432.432
13875212	546.616
19475	83.146
13647	334.588
21168826	396.878
6780	646.056
10841	1153.306
25889	250.399
25890	474.636
10227261	670.418
220998	537.389
12954	412.456
13851576	392.281
12047	1006.893
16736498	5719.567
6478	1230.163
8912	445.228
10849	1100.587
11038	616.583
89076	1058.1
199342	1182.910
19477	276.236
6287	282.219
13811	774.462
14169248	299.246
10437074	197.362
21105878	455.968
21168813	535.751
235	269.435
8186	525.358
13872122	531.532
8098	649.662
6737	961.986
6789	893.709
15861	1350.709
4445317	1342.484
11632	283.624
13885245	559.963
8674	463.076
7132	393.023
11783	252.277
27488	744.827
10813	1176.921
7202	581.006
30516	347.093
26325090	266.312
21112023	447.451
13876539	355.547
68676	863.221
551	1187.461
11776	831.180
66895	849.805
66887	789.208
9893	588.699
63518	726.730
59482	660.811
6881	506.579
13839308	352.645
10586285	1035.052
218253	1153.858
7689	214.170
63310	581.398
7299	859.254
10829	1170.449
12957	131.725
84036	216.156
68152	250.187
24041	241.101
19953955	110.118
14556	497.035
21106140	894.884
1361549	943.140
10831	1164.761
23886	1488.090
33421	1516.062
70714	234.646
15755	1225.963
14995	1288.703
14994	1280.003
67470	1200.3
15476	1205.866
15756	1124.181
6592	1319.592
21943	185.457
10106	440.792
19956441	159.242
11930	269.085
10384035	301.903
65936	231.712
14227	567.410
11584	671.719
13867714	776.008
19957731	324.286
120489	237.343
7302	754.659
16387	557.772
502245	823.938
5708	154.647
16159	288.0
13648	367.785
13835126	553.736
34863	1886.237
23730	81.178
23621376	67.323
21106146	440.604
12231	331.099
15619	1309.797
15789876	931.103
7224	267.657
11600	188.906
21106144	479.986
13863774	432.976
7138	311.606
6604	1149.341
25677	2321.985
6840	1357.472
12816	252.464
21111781	502.406
15475	1267.310
15477	1298.665
15478	1189.937
15524	1121.464
158870	1577.177
157093	1483.281
83374	1486.228
457144	1590.736
135925	1664.803
457145	1559.496
8807	1251.222
19476	134.108
28969	382.1
13863629	100.654
7278	493.563
13644	372.231
21106014	461.324
6852	919.247
6735	1070.684
30572	285.674
21106013	468.853
26260	1392.867
4932499	1687.015
12586	690.859
7964	2007.547
6193	2398.771
15620	1456.552
11708	762.096
13859497	576.167
9943	251.405
456015	370.434
63906	469.958
15621	1373.003
11632871	627.850
13856009	370.4
8876	746.604
21106020	458.323
15488	1067.812
84188	1651.884
136000	1614.281
135983	1522.679
136001	1531.960
136002	1641.096
136003	1530.868
84235	1437.190
82755	1891.654
82712	1990.960
157094	1831.559
103011	1902.633
102798	2090.998
82762	1919.745
13849665	1007.059
24326358	1235.494
5894	27.284
68437	1444.772
26010	1462.549
30600	1386.493
33455	1393.154
33934	1355.532
33932	1409.762
34866	1818.125
34665	1741.226
34664	1763.505
37904	1873.112
34864	1768.177
34188	1809.805
34865	1731.041
11974	1325.288
33416	570.213
15409	624.093
21106036	435.838
8855	615.110
2915	1623.820
13328	5422.495
7225	250.795
7685	253.737
21111817	531.565
20124	936.134
2923	703.993
21106470	611.697
56793	2265.438
454495	2238.377
40191	2194.720
56791	2153.579
35581	2181.908
56774	2724.098
82765	2645.575
2185	786.245
13853953	513.232
457140	1629.763
27793	2128.616
82754	2012.830
457138	1905.527
102897	1912.216
457139	2034.602
102947	2059.046
97173	1940.671
102720	1944.306
102801	2066.773
102833	1967.220
102721	1933.061
102856	2037.108
102933	1875.347
103066	1951.157
97172	1771.021
7030	32.903
62484	806.654
87265	588.195
12699	1865.639
21429023	5729.457
13837303	1121.612
78	249.719
13837329	945.113
65701	751.057
59577	391.291
2283071	1642.538
13104	1246.055
21106008	719.786
247721	623.524
4489	264.953
13835706	548.336
2275	15.525
3918	2053.137
106355	2006.944
102741	2407.668
97055	2323.888
97198	2411.857
5993	34.185
28682	345.986
13856959	977.244
553649	920.731
13848341	258.270
10864	590.838
10169	2202.914
8860	1418.774
6838	1348.660
34874	2160.882
36972	2169.516
56788	2079.203
533188	2147.790
35579	2105.339
16182	1999.259
46262	2106.180
35580	2024.121
82818	2137.034
56790	2269.946
56795	2095.778
33458	2289.985
82777	2069.660
35584	2068.040
56785	2069.045
56792	2029.681
34189	2049.796
34859	3139.674
84346	3153.629
56760	3056.241
56755	3187.537
33666	2974.488
13867413	102.480
6781	547.376
13865630	372.136
7241	248.888
12061	431.109
15473	1291.896
17099	1338.826
17098	1263.428
33933	1329.115
15474	1235.849
34868	1706.629
37905	1798.696
34869	1671.732
37918	1771.991
37915	1633.1
34867	1652.927
25605	1737.279
26011	1618.488
34870	1671.747
34666	1667.205
21924	1599.512
36973	2630.670
37744	2678.435
46894	2605.383
45444	2540.899
56769	2705.212
56780	2589.013
34847	2573.271
39406	2555.236
35081	2467.172
56781	2540.112
56771	2498.302
6842	2149.660
10101	120.720
13835351	753.524
6773	807.305
102834	2577.675
102722	2440.526
154865	2388.780
96948	2350.342
102743	2467.617
102857	2277.332
154866	2365.887
106356	2419.873
102787	2450.964
97240	2524.949
102742	2463.368
136966	473.867
13054	507.236
7636	92.161
21105699	799.336
29107	99.020
7029	41.189
19231	238.573
67460	500.671
9873	2064.342
17868	787.734
6524	1433.819
8243	1512.481
6528	1630.889
13837319	1391.484
8241	1264.416
11422	627.461
6855	1090.072
69982	771.065
97257	2995.393
97224	2946.728
102923	3078.686
96868	2844.580
96864	2830.510
97234	2905.353
97233	2914.249
154062	2855.437
97142	2979.466
2075	3122.227
21106148	495.540
6023	593.849
65763	732.671
56782	3578.464
36977	3616.933
83414	3491.446
84348	3738.493
82823	3528.408
11586	684.315
1278	1462.596
62472	698.973
26563	689.410
36975	2520.910
56778	2502.687
43354	2435.836
37779	2603.592
45445	2416.515
36974	2446.218
35585	2456.608
34848	2372.018
84344	2542.310
34850	2445.228
82819	2566.070
56772	2450.032
82820	2497.857
16415	2805.244
56779	2520.512
56768	2374.741
56777	2378.427
84345	2468.2
34668	2400.603
16736486	5729.457
8111	1483.374
642951	955.679
13300034	2059.403
96965	3471.666
33198	3559.886
82783	3052.747
34852	3006.492
37000	3083.896
37019	2993.808
56765	2959.356
39198	2927.698
82740	3238.133
56761	3061.827
56756	2994.882
56766	2988.968
83413	2913.949
34851	2940.249
36976	3025.563
56767	2861.941
56763	2783.138
5775	5328.873
21106145	645.387
11422351	1201.808
56787	2050.778
35583	2000.034
82807	2026.937
56794	1999.107
33386	2012.907
33457	2211.155
47912	1988.391
82817	1988.404
46893	1921.280
33280	1945.874
35582	1944.487
33304	1951.011
46263	2050.372
553171	265.188
10488	155.172
34667	1570.431
34871	1563.699
34873	1539.231
56784	1696.668
34872	1531.769
970	1580.067
556589	717.560
29153	2455.610
11917	4571.076
204209	1266.690
21106581	631.452
15827	4163.919
70806	2000.664
4437893	1077.901
9824	1528.655
2908	2936.608
33407	4023.281
36985	4177.892
35205	4065.159
15637	4108.372
82821	4085.408
8329	1223.266
2625	3270.447
86007	1330.474
13835344	589.690
76154	1163.078
73390	465.246
11773	453.065
11582	499.407
7172	545.069
2991	1041.455
34853	2886.527
37745	2967.816
36978	2871.057
34190	2856.042
34191	2877.902
36771	2910.882
36710	2805.786
56757	2856.071
549017	3090.509
84347	2863.907
56764	2882.771
56758	2858.199
47914	2891.551
56762	3041.385
33984	2821.742
33983	2756.956
34860	3476.130
82738	3424.666
36982	3468.711
36979	3459.891
47915	3527.718
56783	3392.562
36981	3367.646
37004	3567.838
36980	3401.491
222538	399.427
13848793	654.551
7176	531.516
7211	535.475
65523	395.741
13090	1419.368
82751	4632.515
36989	4679.511
8800	2370.039
62060	3695.132
2975965	2536.877
33282	2349.532
46285	2474.789
46284	2328.201
82806	2351.417
56776	2330.599
47913	2432.925
32952	2286.677
45446	2288.081
43353	2309.788
56773	2336.025
26325089	3898.554
6588	1042.249
2849146	391.921
10437335	460.576
33281	1854.075
56786	1939.449
56789	1849.913
33456	1846.320
46264	1904.448
9187483	2028.779
5978	0.0
10257	591.652
2699	3323.914
5739	2499.6
6577	1162.165
8816	2859.978
659	0.0
13835294	1944.432
8817	2611.661
526	493.419
7199	642.791
6514	2334.318
36990	4017.630
35912	3913.140
45448	4012.155
36987	3951.898
36988	3949.921
13860	563.646
33986	3342.118
36983	3434.377
36986	3330.201
45447	3626.638
35566	3413.146
47916	3277.982
46137	3425.328
550258	3308.909
33985	3276.362
2928	2666.554
8788	3833.885
15484	5257.419
20132	1162.613
7315	849.062
6453	2340.431
6753	1557.474
9797	1989.291
192748	993.637
8799	3571.767
10437836	540.268
2121	1238.852
34854	2781.746
46136	2749.104
82736	2787.299
56759	2731.137
36984	2685.285
6621	535.766
17347	701.786
15517	961.339
56775	2231.110
56770	2230.426
11283	1847.933
36029	1740.711
35206	4510.685
64155	843.867
34192	3810.637
82822	3848.964
8763	4947.658
8804	3368.694
5557	2388.288
75956	1180.480
6775	492.552
2246	3642.681
5113	6889.684
26325182	1429.119
11672	444.9
105291	222.514
35108	3193.868
29117	1746.605
33316	2620.318
5678	3563.281
156255	184.407
18336	876.276
4449	366.745
12549	2194.034
374462	92.707
13662	369.549
10437239	319.702
8351654	177.916
83191	4422.105
5774	4550.706
5145918	3804.986
58496	9137.258
92468	4713.112
11439687	1362.935
92494	4638.764
91432	2355.503
8124942	2843.778
24722	1921.760
133166	4269.333
8101973	2671.615
509179	1302.543
67594	1152.266
4228778	1130.782
10162	4674.540
4444479	6796.415
4444107	3590.318
21108577	642.618
5552	5443.495
21486195	4012.024
4911	2674.523
75995	2153.047
2424	1381.010
4444362	5070.925
14441700	61.633
23055	90.342
14829	0.0
6093	0.0
13848808	574.255
21105897	652.102
6898	630.649
4268	1898.622
8058	1072.471
8060	1118.293
7566	14.797
62310	717.276
6338	26.918
10498	46.975
6057	2238.134
21105848	622.168
518	N/A
7546	45.460
7013	160.230
10292746	5680.675
13835550	19.490
6128	0.0
175	0.0
6745	768.559
10343	883.998
2041618	N/A
10784857	N/A
274	0.0
6106	0.0
62826	173.905
8543	71.864
6630	536.042
13837787	411.869
10772140	36.379
6148	0.0
62589	222.629
7686	222.831
56144	327.853
7791	123.074
6105	0.0
13837537	100.216
21106570	1286.318
6135	0.0
2927	2284.431
8262	1081.095
3548	1379.749
11434292	N/A
7624	169.732
38403	111.476
2282428	148.168
9251	146.067
13571291	15.285
71312	182.341
11153	0.0
3973	231.107
75951	312.449
68832	189.419
92731	315.634
6102	0.0
76894	N/A
4624	1607.198
7794	279.610
70850	53.205
11811	56.942
7777	101.5
15482	371.028
7856	258.060
8562	150.497
7730	57.744
654	0.0
2062437	131.982
