Compound Id	AutocorrelationPolarizability [ATSp2]
502855	664.766
6191	62.003
26325183	1615.852
5709	371.099
6153	16.222
16425	126.470
8521	747.953
23150	273.946
8520	589.092
66656	N/A
26824	593.732
18019	763.189
26325084	1700.802
6190	126.351
11919	399.039
10696	561.577
26325083	1541.779
10451	749.274
23101	430.679
122090	516.854
26325082	1382.756
26325081	1223.732
10449	925.544
26325080	1064.707
66655	348.361
14021447	905.671
67991	336.341
109705	679.588
17619	N/A
692	5.773
291	0.0
6084	14.973
6094	46.125
7555	88.529
6120	98.2
7712	137.844
6308	153.833
9646	175.942
10781	425.877
15802	404.118
17976	462.927
7767	191.183
7604	210.948
7010	217.167
6163	246.780
6340	234.342
8560	246.799
11094	268.731
11023	278.652
11055	312.585
10786	306.267
7619	292.742
10755	326.110
11551	288.5
349	303.682
11035	338.873
11104	351.142
10795	404.848
10445	403.958
7849	361.262
17558	385.079
13439	525.644
13402	511.434
14840	419.220
13448	580.415
13619	477.385
7890	535.659
11882	593.992
11883	652.357
10540	769.129
7929	1002.720
11897	1061.120
11899	1119.520
12017	1177.920
12072	1236.320
11900	1294.720
11901	1353.120
11146	1411.520
11902	1469.920
10542	1703.521
11906	1937.122
8878	432.484
11585	541.383
11557190	746.577
10452	371.945
108106	1254.262
127983	3.160
78828	587.203
68328	426.496
67414	848.101
13837650	115.755
13853215	210.602
9392	214.792
10765	158.549
7674	348.673
14998	186.706
10614293	403.958
6156	123.449
12201	216.028
11109	195.673
24142	716.148
13622	657.763
16180	599.391
7891	541.046
12446	217.286
29025	366.510
12635	482.748
11121	251.684
7713	141.680
12809	424.543
7833	308.798
7556	91.333
7954	47.441
555074	252.764
7957	101.472
4516601	310.050
56442	91.149
4483639	142.063
4516599	311.747
4512361	310.050
4483638	142.063
4449912	91.149
4512642	311.747
18410	538.549
22408	0.0
66675	281.339
10113	158.788
9484	40.165
6085	15.218
7024	274.795
15438	414.597
8896	191.642
14751	426.109
221117	456.364
7787	257.710
8908	334.866
8909	403.039
8910	543.160
71433	186.296
22814	0.0
9095782	156.371
6151	110.674
6188	318.947
11099	145.563
73583	291.387
7340	669.462
8158	272.758
11110	200.222
9642	43.129
11996	254.068
10756390	945.783
62827	105.805
7626	235.709
10265264	445.690
56117	252.098
11230	143.057
63631	220.826
11086	359.204
11841	349.231
6402	814.910
1406720	1743.119
1114	89.752
14692	429.878
10179173	445.690
21800	456.364
8544	198.044
7788	265.218
4927801	1662.337
10325078	275.439
55188	270.444
68224	926.456
24263	769.827
6364	859.628
11749	173.143
14672	198.325
11228	117.914
11857	343.568
391428	769.827
10733068	1253.730
454638	1736.186
9990	71.020
6309	163.763
7557	94.182
558883	145.959
56020	145.959
10124	249.354
6111	67.403
10265270	709.690
14198	813.517
7180	663.386
9411	160.096
6149	189.327
15765	456.364
553642	412.366
15413	319.649
7182	665.388
10669	661.355
8569	307.667
12220	419.518
7823	200.478
11849	202.842
10441	63.168
3168	103.410
11833	156.562
455420	322.672
10709	106.755
10179239	709.690
11761	418.172
6108	111.696
69914	621.557
59573	153.929
11671339	628.602
7956	29.341
55090	278.041
10053	257.204
28993	510.328
10054	201.746
9461	139.989
16791	277.497
11117	272.842
205483	584.588
10979	664.807
61346	182.865
6186	451.386
69371	494.422
69569	497.447
7181	665.362
99596	251.363
11351244	460.017
16841	110.041
61266	1045.705
6187	447.195
2656	853.236
6827	860.627
20939	660.849
7817	207.202
11788	332.758
13835316	136.304
6270	389.382
454209	123.543
9633	317.947
9377	205.221
9243	24.157
11148	4.892
923	9.420
6121	114.727
6315	175.157
6118	152.535
8577	536.351
14349	477.948
7852	419.552
14680	361.186
7776	244.829
7330	204.541
6122	243.153
7732	106.740
11729	142.801
6307	211.974
13255	302.676
10512	208.599
13837797	209.232
6098	56.602
10536	476.982
7827	347.058
9233	212.537
18607	204.418
5730	288.931
10526	265.161
120464	363.047
24590970	309.159
7733	110.118
7850	380.472
11865	322.587
7714	153.647
10437	101.674
6097	55.131
12219	480.411
7848	421.991
61487	343.409
11863	363.580
7810	305.217
7766	247.007
7711	189.215
7552	132.470
6092	78.199
12010	397.648
11830	336.162
10497	272.686
31029	206.250
6100	135.696
12228	N/A
6042	258.241
13836713	134.331
13803	167.725
7815	302.902
7560	130.905
6103	77.238
6635	898.046
6087	18.215
7721	187.268
6083	29.452
1039	81.077
6088	59.588
13837281	360.666
56232	553.939
5979	771.783
13837190	79.215
7074	396.457
7170	804.185
10534	361.311
10410	557.333
68503	235.006
14694	164.462
7090	369.246
7028	222.005
10487	380.736
13492	708.109
15747	766.971
8356	581.376
18971812	251.485
14688	787.680
71876	546.404
7128	497.826
7183	596.973
7088	631.368
15461	732.433
13299573	234.604
7073	387.558
2340753	205.4
8554	211.418
10340	205.671
13487	648.848
7385	463.776
8531	579.952
7448	571.734
764	328.347
10325184	214.799
6406	211.501
12066	114.131
7738	137.431
10404	588.853
7419	527.520
7219	395.764
11660	491.507
6999	645.040
18688	361.856
7737	150.494
1108	320.438
236	233.878
7521	412.980
7641	416.343
7659	521.890
11871	536.881
55130	306.380
10433	305.204
11992	248.619
10253	619.983
60886	852.799
83962	1173.476
12161	180.584
7671	400.567
10446	283.115
62249	305.289
11526	98.860
7672	446.321
7786	382.469
8335	597.305
7657	313.637
22453	325.760
7065	256.010
13875283	341.863
7553	135.904
11409	507.899
3631	202.010
13835836	234.921
55084	399.388
7694	341.738
7482	286.834
11716	340.430
11045	284.479
7515	230.291
13836549	351.975
13836674	104.654
6967	423.440
6977	525.673
21168808	383.283
960	826.791
61213	140.912
7472	253.844
11207996	269.524
29016	304.649
7747	247.276
7627	191.062
10571	204.356
7076	374.144
7003	323.531
9614	254.527
7739	274.869
8883	849.596
7757	580.402
7511	463.897
7509	405.840
29005	348.050
10420	290.721
7478	188.133
7475	234.173
7463	178.928
21111806	274.878
21111820	372.698
21171407	210.583
11910	202.829
13850082	766.137
7872	454.899
7875	571.239
7913	687.906
7670	455.152
8568	339.638
14846	469.938
7800	411.840
11843	283.022
29012	227.786
10797	337.757
7538	353.990
7536	296.585
11755	134.413
7706	174.898
7761	246.857
10492	189.834
11680	184.701
11706	239.963
10653	131.768
68179	291.163
11727	43.469
21108550	275.033
9724	796.102
11731	210.488
8950	470.880
14866	828.019
6720	687.884
7559	64.281
10236	536.577
7012	177.770
11065	175.201
28981	368.495
99681	924.315
8525	125.865
6176	285.146
7081	244.189
6313	119.199
9903	580.618
55123	282.373
12012	226.475
7534	378.941
10791	248.707
11125	172.545
7782	122.001
6316	194.499
9325	274.569
123860	315.344
28986	284.691
6335	82.779
7616	129.773
7129	509.269
10788	251.975
7621	242.599
8329688	179.156
10777	185.136
441	325.099
7838	267.983
5949	211.933
29029	382.802
7772	157.791
256	107.011
512	62.006
21169510	479.759
7676	351.276
13875281	460.441
7220	404.010
7248	505.922
11661	500.378
12674	824.727
8097	671.708
12972	521.226
9976	403.010
7514	283.050
215929	340.937
11025	225.573
7734	77.086
7016	168.844
1095	282.063
2038738	294.137
12259	786.534
13836589	124.489
172	26.506
13836520	257.795
13875230	450.872
18219	387.646
10801109	585.233
29004	345.819
7871	509.270
21153	567.584
7802	335.079
12218	451.031
12632	392.928
7760	277.688
11095	221.124
21106173	345.819
7607	166.039
13866746	333.249
7577	40.965
7506	517.303
9228	373.198
7239	513.6
11647	459.542
7530	411.602
1266019	670.933
109838	168.759
6321	113.569
13874867	214.026
6314	123.645
4510484	379.843
62530	434.7
13842613	386.705
7391	399.771
7242	368.396
26325086	363.827
13862665	179.193
15443	377.472
124968	212.405
9581	363.812
66809	316.312
221082	473.639
13875320	534.780
6642	935.393
13835376	214.227
127750	218.462
13857694	486.570
7673	414.533
7662	640.478
363458	278.375
7684	282.099
61111	234.095
13875196	363.003
11042	385.319
24972	462.144
28992	358.491
13875160	446.387
13875258	514.067
9994	87.614
29015	169.142
4446445	332.550
4444608	218.299
394562	110.656
13839199	296.012
18724	605.691
7238	341.734
21105959	445.860
13866817	480.791
13875392	520.612
13839575	236.396
6322	117.577
558020	213.367
21132380	389.538
13677	876.528
65750	564.709
63903	440.199
10940	395.546
13865438	434.312
13868640	622.632
29001	195.420
21106135	438.047
13837988	499.027
10400	846.875
8067	1287.064
13839109	238.723
21105905	371.391
11077	390.504
906	650.175
13865426	264.447
10710415	273.990
21106560	372.862
20843	368.484
15965	569.898
70682	542.135
13658	572.315
11862	425.078
7710	246.932
7809	366.298
7765	307.081
6794	650.386
26516	647.548
17131	572.494
21106520	297.859
924	480.070
13862559	647.274
6788	760.910
13861343	311.443
73412	265.939
8904	195.759
13874733	298.767
24535	614.104
25552	532.360
10437215	405.506
11087	557.989
10909	873.806
10918	874.783
15489	930.670
2441	940.188
10939	390.185
11784	327.730
8868	496.964
7518	550.205
21106019	476.026
24533	344.815
1020	214.456
2039535	349.521
8374	627.268
21106586	362.826
11756	84.009
71089	272.477
7688	274.212
8902	195.949
10937	398.457
6897	512.704
17443	294.105
6883	455.022
11785	328.751
7240	376.337
503239	428.817
21106571	834.284
10908	889.043
3463	3031.350
16388	585.752
6828	789.163
7161	713.043
8141	222.601
7679	292.196
4444456	174.898
66996	300.871
13840690	422.194
11667	467.838
13864445	666.586
21108548	582.442
21106163	827.548
14256731	599.231
6311	116.943
30595	571.511
13865424	442.114
13229	497.373
7175	551.961
7157	558.262
917	813.124
13875356	634.025
12044	924.323
12682	1005.153
71628	357.157
9363	233.019
6296	642.937
70715	359.446
62632	788.149
78998	729.758
11884	613.006
16177	554.667
15853	496.381
67360	438.194
11866	265.483
15846	380.192
29026	322.528
11846	209.556
7770	155.624
7717	105.191
62808	214.474
21106366	499.773
7420	549.415
21168831	487.394
455090	420.581
71437	1201.712
13063	849.178
558878	528.504
25886	334.064
71430	340.041
559096	1699.688
13868660	705.910
707	1349.002
387	130.223
10018	169.449
61001	590.725
20570	449.852
21106540	847.936
15855	713.043
7790	131.803
8903	195.818
62489	319.936
8899	253.051
13634	379.398
13630	390.514
553578	528.504
66565	251.3
10437135	352.627
66021	302.861
7221	380.898
7383	536.628
6339	643.961
6736	778.566
10851	893.008
10850	899.527
23977588	3104.474
24043	207.170
12069	278.217
191367	222.222
11799	168.112
7615	117.250
11265	379.580
67653	458.053
21106032	226.554
1348	223.314
66896	1055.889
62534	469.624
62408	483.777
7389	375.488
38364	753.322
12045	902.699
2003	3243.249
17784	399.938
12637	393.196
21106524	454.935
13875212	659.083
19475	146.467
13647	388.310
21168826	446.243
6780	616.525
10841	907.3
25889	285.739
25890	502.390
10227261	689.148
220998	562.296
12954	442.698
13851576	476.653
12047	892.462
16736498	3104.474
6478	1007.589
8912	444.949
10849	895.079
11038	784.299
89076	968.049
199342	1019.257
19477	319.063
6287	252.749
13811	626.405
14169248	337.657
10437074	304.995
21105878	455.539
21168813	538.517
235	348.502
8186	532.346
13872122	595.573
8098	621.799
6737	826.119
6789	801.967
15861	1027.080
4445317	1066.974
11632	321.807
13885245	574.154
8674	459.496
7132	435.373
11783	389.227
27488	758.493
10813	917.545
7202	559.643
30516	381.887
26325090	346.795
21112023	457.251
13876539	420.854
68676	759.611
551	967.121
11776	894.172
66895	821.485
66887	762.311
9893	577.928
63518	702.459
59482	641.348
6881	510.327
13839308	417.311
10586285	854.985
218253	974.141
7689	325.628
63310	516.285
7299	836.8
10829	913.875
12957	196.469
84036	260.319
68152	322.601
24041	310.010
19953955	180.314
14556	488.861
21106140	735.050
1361549	887.755
10831	913.152
23886	1170.962
33421	1180.144
70714	364.732
15755	997.404
14995	1016.091
14994	1014.342
67470	985.569
15476	989.268
15756	960.082
6592	1077.087
21943	252.785
10106	407.395
19956441	234.757
11930	307.221
10384035	346.568
65936	296.408
14227	576.091
11584	658.483
13867714	718.665
19957731	405.869
120489	291.809
7302	741.601
16387	516.447
502245	722.742
5708	201.254
16159	407.211
13648	406.407
13835126	567.732
34863	1389.106
23730	141.739
23621376	128.903
21106146	456.919
12231	393.526
15619	1018.268
15789876	911.3
7224	344.408
11600	308.140
21106144	465.930
13863774	452.610
7138	359.244
6604	945.471
25677	1619.689
6840	1042.898
12816	326.377
21111781	477.309
15475	1010.964
15477	1022.258
15478	985.711
15524	958.351
158870	1197.283
157093	1163.312
83374	1165.309
457144	1201.560
135925	1224.808
457145	1187.018
8807	1027.069
19476	201.406
28969	429.427
13863629	229.107
7278	518.893
13644	411.942
21106014	493.498
6852	782.511
6735	918.760
30572	327.334
21106013	492.518
26260	1042.362
4932499	1180.673
12586	623.401
7964	1380.430
6193	1547.383
15620	1059.175
11708	957.764
13859497	568.399
9943	325.176
456015	452.159
63906	544.566
15621	1034.146
11632871	627.722
13856009	410.116
8876	657.965
21106020	486.513
15488	944.617
84188	1221.266
136000	1207.234
135983	1175.194
136001	1180.824
136002	1219.296
136003	1181.059
84235	1148.605
82755	1385.145
82712	1415.885
157094	1363.745
103011	1387.454
102798	1448.150
82762	1390.674
13849665	894.517
24326358	1024.083
5894	89.8
68437	1053.182
26010	1163.055
30600	1136.145
33455	1134.906
33934	1119.703
33932	1143.083
34866	1366.814
34665	1335.945
34664	1346.572
37904	1383.382
34864	1348.831
34188	1360.883
34865	1329.823
11974	1225.330
33416	569.831
15409	634.474
21106036	404.236
8855	589.004
2915	1347.024
13328	3141.549
7225	322.395
7685	386.544
21111817	570.564
20124	842.907
2923	652.109
21106470	583.744
56793	1599.401
454495	1592.029
40191	1574.227
56791	1558.370
35581	1571.519
56774	1837.176
82765	1809.256
2185	789.323
13853953	505.198
457140	1216.114
27793	1462.219
82754	1424.429
457138	1386.988
102897	1390.918
457139	1432.853
102947	1438.389
97173	1397.136
102720	1399.039
102801	1442.475
102833	1405.093
102721	1397.021
102856	1430.013
102933	1377.582
103066	1403.542
97172	1343.826
7030	133.785
62484	817.568
87265	698.554
12699	1313.958
21429023	3269.502
13837303	855.117
78	321.211
13837329	729.574
65701	797.791
59577	381.031
2283071	1172.136
13104	1026.946
21106008	601.348
247721	640.837
4489	348.132
13835706	524.657
2275	106.721
3918	1389.078
106355	1423.435
102741	1636.447
97055	1607.826
97198	1638.661
5993	109.655
28682	381.956
13856959	912.523
553649	906.945
13848341	289.179
10864	583.401
10169	1598.582
8860	1092.898
6838	1165.237
34874	1566.631
36972	1565.604
56788	1534.153
533188	1562.459
35579	1546.255
16182	1502.293
46262	1544.287
35580	1513.844
82818	1555.9
56790	1598.578
56795	1535.363
33458	1607.357
82777	1531.913
35584	1530.591
56785	1536.851
56792	1511.927
34189	1525.879
34859	2058.734
84346	2061.575
56760	2029.203
56755	2075.670
33666	2000.266
13867413	148.961
6781	487.738
13865630	392.130
7241	318.813
12061	484.101
15473	1103.663
17099	1117.832
17098	1088.311
33933	1119.134
15474	1073.466
34868	1328.837
37905	1357.440
34869	1310.894
37918	1351.897
37915	1299.174
34867	1308.731
25605	1336.392
26011	1290.855
34870	1313.601
34666	1317.346
21924	1281.794
36973	1806.343
37744	1819.167
46894	1795.289
45444	1771.046
56769	1830.568
56780	1794.613
34847	1785.698
39406	1779.586
35081	1744.895
56781	1773.702
56771	1759.008
6842	1681.496
10101	117.862
13835351	649.049
6773	663.820
102834	1692.223
102722	1645.123
154865	1629.320
96948	1619.324
102743	1655.733
102857	1594.507
154866	1623.878
106356	1642.122
102787	1648.725
97240	1674.344
102742	1654.916
136966	523.365
13054	535.629
7636	200.882
21105699	737.359
29107	173.014
7029	175.491
19231	308.588
67460	547.216
9873	1483.059
17868	728.469
6524	1144.191
8243	1210.513
6528	1327.321
13837319	1093.397
8241	975.390
11422	593.718
6855	893.847
69982	574.592
97257	1909.981
97224	1895.577
102923	1937.093
96868	1861.130
96864	1858.843
97234	1881.613
97233	1885.931
154062	1867.775
97142	1905.832
2075	1946.554
21106148	473.804
6023	592.427
65763	642.472
56782	2285.684
36977	2301.363
83414	2255.090
84348	2336.814
82823	2270.188
11586	592.020
1278	1085.229
62472	599.777
26563	688.962
36975	1767.870
56778	1766.172
43354	1734.354
37779	1795.894
45445	1732.119
36974	1745.662
35585	1746.418
34848	1712.970
84344	1773.532
34850	1740.055
82819	1783.771
56772	1747.816
82820	1751.970
16415	1858.925
56779	1761.672
56768	1715.084
56777	1722.308
84345	1752.606
34668	1725.975
16736486	3269.502
8111	1141.626
642951	761.674
13300034	1621.667
96965	2148.351
33198	2176.137
82783	2028.636
34852	2012.075
37000	2041.593
37019	2012.874
56765	1992.261
39198	1984.294
82740	2086.892
56761	2032.704
56756	2007.924
56766	2004.626
83413	1984.568
34851	1990.354
36976	2020.814
56767	1962.640
56763	1939.519
5775	3179.060
21106145	580.175
11422351	980.786
56787	1525.580
35583	1508.664
82807	1521.388
56794	1513.882
33386	1506.652
33457	1580.740
47912	1501.978
82817	1504.397
46893	1482.672
33280	1488.489
35582	1493.641
33304	1485.537
46263	1528.610
553171	298.744
10488	239.681
34667	1279.157
34871	1281.837
34873	1262.860
56784	1325.971
34872	1265.046
970	1170.419
556589	641.331
29153	1590.724
11917	2655.280
204209	1119.468
21106581	572.472
15827	2452.111
70806	1366.452
4437893	1042.918
9824	1142.149
2908	1808.161
33407	2514.167
36985	2565.149
35205	2530.895
15637	2548.189
82821	2532.864
8329	1011.884
2625	2205.596
86007	964.671
13835344	553.620
76154	956.020
73390	457.154
11773	467.108
11582	482.295
7172	497.329
2991	900.848
34853	1970.565
37745	2002.147
36978	1969.823
34190	1969.537
34191	1967.010
36771	1981.570
36710	1948.236
56757	1959.143
549017	2037.866
84347	1967.914
56764	1970.351
56758	1966.057
47914	1979.645
56762	2014.696
33984	1949.046
33983	1927.527
34860	2253.529
82738	2237.658
36982	2249.828
36979	2252.135
47915	2262.444
56783	2224.153
36981	2214.074
37004	2279.689
36980	2227.973
222538	405.015
13848793	589.591
7176	506.557
7211	492.160
65523	401.052
13090	1207.084
82751	2796.259
36989	2814.649
8800	1590.546
62060	1891.055
2975965	1761.909
33282	1706.824
46285	1752.680
46284	1703.547
82806	1713.012
56776	1710.204
47913	1732.240
32952	1685.573
45446	1691.694
43353	1695.354
56773	1707.299
26325089	2653.884
6588	824.985
2849146	397.250
10437335	452.933
33281	1456.030
56786	1491.043
56789	1459.640
33456	1463.730
46264	1473.262
9187483	1611.741
5978	198.560
10257	508.075
2699	2057.621
5739	1696.192
6577	954.659
8816	1801.461
659	139.293
13835294	1296.316
8817	1726.872
526	481.827
7199	608.656
6514	1514.307
36990	2510.310
35912	2479.852
45448	2513.659
36987	2495.385
36988	2488.388
13860	619.983
33986	2207.299
36983	2235.862
36986	2208.016
45447	2300.535
35566	2225.947
47916	2187.656
46137	2236.298
550258	2200.403
33985	2185.646
2928	1946.037
8788	2249.075
15484	3082.732
20132	1048.553
7315	821.062
6453	1505.150
6753	1109.312
9797	1440.452
192748	757.837
8799	2197.978
10437836	597.560
2121	1015.788
34854	1936.302
46136	1928.201
82736	1943.975
56759	1926.355
36984	1906.816
6621	553.876
17347	713.461
15517	783.137
56775	1670.271
56770	1675.338
11283	1350.956
36029	1400.888
35206	2758.494
64155	721.7
34192	2448.041
82822	2458.602
8763	2727.715
8804	2139.901
5557	1670.734
75956	980.931
6775	476.862
2246	2190.578
5113	3440.768
26325182	1116.243
11672	462.455
105291	313.651
35108	2161.634
29117	1339.523
33316	1888.415
5678	2262.550
156255	352.990
18336	865.810
4449	433.572
12549	1464.161
374462	253.448
13662	388.307
10437239	384.017
8351654	252.174
83191	2602.371
5774	2678.979
5145918	2150.352
58496	4562.678
92468	2810.361
11439687	1067.249
92494	2746.966
91432	1566.190
8124942	1884.585
24722	1516.391
133166	2510.113
8101973	1748.579
509179	1101.760
67594	902.129
4228778	993.929
10162	2731.122
4444479	3580.670
4444107	2242.388
21108577	573.189
5552	2967.904
21486195	2777.669
4911	1968.976
75995	1749.961
2424	978.594
4444362	3109.9
14441700	145.668
23055	234.741
14829	164.598
6093	89.610
13848808	517.328
21105897	576.449
6898	613.429
4268	1265.0
8058	919.786
8060	978.810
7566	60.730
62310	634.415
6338	71.808
10498	119.406
6057	1664.760
21105848	534.674
518	N/A
7546	138.872
7013	289.184
10292746	3334.744
13835550	79.021
6128	32.546
175	65.702
6745	670.857
10343	676.448
2041618	N/A
10784857	N/A
274	9.539
6106	272.010
62826	206.638
8543	170.222
6630	523.835
13837787	406.442
10772140	103.280
6148	91.906
62589	335.991
7686	334.491
56144	293.111
7791	246.216
6105	9.210
13837537	200.847
21106570	1049.574
6135	34.975
2927	1695.496
8262	834.574
3548	1106.009
11434292	N/A
7624	278.694
38403	123.247
2282428	237.894
9251	242.541
